>compound Anthranilate
#instrument LTQ Orbitrap XL, Thermo Scientfic
>formula C7H7NO2
#smiles OC(=O)c(c1)c(N)ccc1
#inchi InChI=1S/C7H7NO2/c8-6-4-2-1-3-5(6)7(9)10/h1-4H,8H2,(H,9,10)
>charge 1

>ms1peaks
100.111848 174128.625
102.033748 272515.21875
110.019964 350409.28125
111.020036 106588.140625
112.017904 48609.695313
119.975717 35922.230469
120.021403 91052.039063
120.033077 30986.361328
120.035561 53475.003906
120.037051 51097.117188
120.038045 66303.234375
120.039038 34269.320313
120.040529 150713.375
120.041274 68234.179688
120.042765 349471.21875
120.044255 22282992.0
120.045497 484277.09375
120.046243 310277.65625
120.047733 114350.242188
120.048479 121982.203125
120.050218 58537.820313
120.051709 31802.464844
120.055435 30418.488281
120.067114 91864.148438
120.112852 33399.179688
120.171803 32034.300781
121.04771 1545231.5
121.048968 31100.6875
133.076306 63293.902344
137.585377 55160.703125
137.897746 69043.875
137.969959 89646.523438
138.002412 54291.910156
138.026606 236659.0625
138.029363 37098.472656
138.036102 57737.042969
138.038553 54443.699219
138.039778 39373.273438
138.041003 81842.09375
138.043454 69528.640625
138.044067 63492.164063
138.045292 65884.328125
138.04713 152923.421875
138.048356 79077.289063
138.049888 365939.375
138.051113 199131.671875
138.05479 59631440.0
138.056322 1116360.125
138.057241 801514.625
138.059079 294371.5625
138.059999 322317.03125
138.060918 80575.71875
138.062143 141125.015625
138.063676 78590.453125
138.064901 56867.6875
138.06582 60178.464844
138.06674 48784.40625
138.068578 72041.65625
138.070417 46815.296875
138.071643 40864.59375
138.072256 33577.554688
138.073175 49068.527344
138.078385 33421.621094
138.079917 34450.695313
138.082982 238181.8125
138.093709 31526.449219
138.107197 69009.117188
138.139392 94983.601563
138.212102 78913.710938
138.526609 52529.773438
139.051631 40523.707031
139.055967 57999.75
139.057826 3843641.5
139.059374 60796.53125
139.060304 44569.675781
140.058369 67069.1875
149.022904 66235.9375
158.002552 51365.921875
158.960868 33899.4375
163.132278 78246.929688
166.111546 97905.945313
170.095866 70781.328125
171.149125 1614356.375
172.152025 60516.632813
174.127584 946078.8125
179.0632 109329.359375
182.984328 42581.484375
187.12606 219917.96875
190.992536 42490.261719
199.179842 163649.421875
255.155217 42321.859375
282.220291 37306.289063
299.181639 59519.808594
331.214797 150783.859375
391.284356 1751170.75
392.286254 274384.78125
413.265143 633915.625
414.266682 73638.835938
436.339497 44591.0625
803.544293 57792.289063
100.112037 153831.4375
102.033748 260644.53125
110.019964 709159.5625
111.020256 258117.25
112.017904 65049.941406
119.975717 34566.011719
120.021651 161329.4375
120.032828 34079.761719
120.036057 52775.855469
120.037299 62002.175781
120.038293 62084.972656
120.039038 63141.320313
120.04028 159136.203125
120.041026 124995.773438
120.042268 282980.46875
120.042765 283993.5
120.044504 26255100.0
120.046491 372395.625
120.048479 160337.34375
120.050218 57205.640625
120.051709 62015.386719
120.067363 157004.75
120.113101 41552.003906
121.04771 1911651.5
133.076306 68993.046875
137.585681 60452.175781
137.885512 36229.957031
137.899581 64843.027344
137.970265 90550.140625
138.003331 81208.90625
138.026913 392281.125
138.037021 54768.769531
138.03794 46825.828125
138.039472 39548.890625
138.040391 71338.601563
138.04131 76392.195313
138.042535 73732.054688
138.04376 54004.605469
138.04468 70569.5
138.045599 139398.296875
138.047437 168166.984375
138.048356 110717.703125
138.049888 383760.90625
138.050807 293155.28125
138.052339 658711.375
138.052951 688104.75
138.055096 67719360.0
138.057547 915610.3125
138.059692 389834.5
138.062143 158286.59375
138.063982 158767.765625
138.06582 84260.242188
138.067046 67800.1875
138.068272 84370.523438
138.069498 73447.46875
138.070111 57411.808594
138.070723 42104.8125
138.071336 35884.847656
138.072562 64230.777344
138.081143 34566.101563
138.083288 383270.75
138.106891 76000.375
138.139699 103259.382813
138.210567 80107.9375
138.224686 40721.121094
138.526609 57894.054688
139.05256 49797.265625
139.055348 43423.417969
139.055967 47063.898438
139.058135 4436897.0
139.060613 46611.902344
140.058682 114820.703125
140.060561 34307.007813
144.98186 52481.3125
154.990068 64809.511719
158.096003 42852.082031
158.961247 35579.175781
163.132671 69271.742188
166.11195 168631.203125
170.096285 51227.605469
171.149125 1349736.875
172.152025 37848.394531
174.127584 655478.6875
179.063653 104461.90625
182.984796 149477.703125
185.114619 41601.304688
187.12606 218201.921875
190.992536 36730.0
199.180373 90101.351563
299.182617 52907.886719
331.215936 130079.601563
391.284356 722766.5
392.286254 88933.164063
413.265143 292890.09375
414.268274 57241.53125
803.544293 35296.203125

>collision 35
88.149788 26.822245
91.986679 8145.609863
99.535202 70.947075
120.130997 404.581177

>collision 35
119.97226 1582503.125

>collision 35
119.981491 1879302.375
120.742554 1014.32605

>collision 35
65.040108 113.672195
74.09066 13.568557
88.897087 24.621696
91.968094 6918.517578
102.238251 50.995293
120.063248 174.167877

>collision 35
120.99205 6296.386719

>collision 35
120.948593 5947.872559

