>compound Vorinostat
>formula C14H20N2O3 
>ionization [M+H]+
>parentmass 265.156
#inchi InChI=1S/C14H20N2O3/c17-13(15-12-8-4-3-5-9-12)10-6-1-2-7-11-14(18)16-19/h3-5,8-9,19H,1-2,6-7,10-11H2,(H,15,17)(H,16,18)
#inchikey WAEXFXRVDQXREF
#Ion_Source LC-ESI
#Instrument qTof
#Compound_Source Isolated
#PI Sirenas
#Data_Collector Ed Esquenazi 
#Scan -1
#Precursor_MZ 265.156
#ExactMass 0.0
#Charge 1
#CAS_Number N/A
#Pubmed_ID N/A
#Smiles N/A
#INCHI_AUX N/A
#Library_Class 3
#SpectrumID CCMSLIB00000006060
#IonMode Positive
#UpdateWorkflowName UPDATE-SINGLE-ANNOTATED-BRONZE
#LibraryQualityString Bronze
#TaskID d19310cd93df49b68e9fcbec27720eb5
##Scan# 1
#SpectrumFile Vorinostat.mgf
#LibraryName fda_library.mgf
#MQScore -1
#Organism fda_library
#TIC_Query 0
#RT_Query -1
#MZErrorPPM -1
#SharedPeaks 0
#MassDiff 0
#LibMZ -1
#SpecMZ 265.156
#SpecCharge 0
#internalFilename spec-00000.mgf

>collision 10
100.037704 28.246981
102.090263 116.798203
103.048569 57.870369
103.055122 35.99247
103.406891 7.291667
103.760956 32.275742
104.047188 196.616394
104.175278 14.34405
104.635735 21.394739
106.066284 7.340909
108.079483 1533.900024
108.124268 4.226852
108.158142 9.280702
108.17984 8.920045
108.252213 5.340909
108.271278 8.307693
108.310143 5.480072
108.371742 9.1875
108.397041 8.881579
108.454979 8.428572
108.473679 6.5
108.516144 7.673611
108.82206 9.338889
108.854111 9.796296
109.063728 744.534912
109.102448 9.884804
109.325508 7.746795
109.524269 16.993219
110.056786 212.550003
110.094681 520.789429
110.456779 3.375
110.497055 48.329239
110.731163 8.348485
111.079056 2265.418945
111.125763 22.374069
111.14164 16.32527
111.152733 19.00758
111.170998 9.171748
111.233261 9.676802
111.28981 7.382936
111.36171 10.66768
111.42659 7.002778
111.446716 29.69091
111.526665 10.57353
111.545349 11.33854
111.56739 19.025841
111.781166 21.46731
112.097015 17.49781
112.181747 9.675
118.062927 85.417732
119.048355 53.347519
119.464943 8.291667
120.042381 2301.610107
120.076859 57.537418
120.087448 11.29348
120.269402 14.9631
120.323036 6.59375
120.377426 11.74167
120.407471 7.375
120.446907 4.115741
120.503342 10.72803
121.062881 815.629211
121.108131 1.680555
121.134285 5.371913
121.318207 28.58028
125.05735 35.112499
125.082855 59.759418
125.352798 11.66786
125.413803 7.840517
125.49176 9.690891
125.510719 15.57372
125.710098 10.04003
126.05191 96.757874
126.089394 1453.505005
126.120872 18.56019
126.147385 7.033333
126.17469 17.45455
126.251678 5.888889
126.323433 10.28409
126.352669 6.583333
126.390343 10.45
126.397079 9.358334
126.569893 9.272223
126.61322 11.46833
127.072609 96.587242
128.105927 77.867073
130.059113 35.425671
130.081497 39.830132
132.080795 91.089973
132.340683 9.527778
132.446136 8.132247
135.049789 8.259259
135.74263 7.59375
136.073441 432.759491
136.158295 10.25941
136.949814 12.6864
137.055237 94.557426
137.381683 59.853989
137.412033 90.583687
137.842896 13.67083
138.066757 74.993652
138.235626 12.15705
138.34697 44.182259
138.383011 8.669118
138.427948 4.047619
138.44046 15.41588
138.464859 14.68421
138.492477 17.447109
138.531372 8.307693
138.685913 12.40514
138.713776 8.185897
138.728912 21.39855
138.743271 12.34375
138.765289 15.63362
138.964645 13.33667
139.030533 22.44643
139.073395 19180.179688
139.124283 78.812698
139.151917 3.973485
139.168808 10.77778
139.187057 37.040531
139.194397 9.334459
139.201569 4.672619
139.209747 19.76066
139.221115 36.075981
139.236893 29.3584
139.254654 43.383339
139.277283 64.644707
139.296539 22.29825
139.311386 6.0
139.318649 39.909512
139.333542 38.571869
139.35051 16.13397
139.358429 18.384609
139.373871 29.066441
139.379013 16.67157
139.426727 40.921471
139.440674 31.775539
139.467773 27.18519
139.510406 27.37977
139.53273 40.340328
139.540451 13.23184
139.553085 4.893518
139.560638 20.12121
139.588699 12.68792
139.598236 12.07419
139.605606 37.755798
139.643082 17.95425
139.660782 28.778151
139.675079 13.78392
139.694611 19.408331
139.709518 19.233549
139.786041 7.682971
139.798386 12.48457
139.860092 9.180555
139.934341 20.377781
140.218231 18.72794
140.599075 16.85227
140.680054 5.025
140.721268 10.41177
140.741928 8.386905
140.83728 11.63516
141.096771 9.969087
141.288986 14.76587
141.527176 10.57576
142.123764 9.334302
142.166168 8.777778
143.28804 22.6509
143.370743 7.033333
143.400864 8.777778
143.409317 11.20119
143.512604 7.347222
143.52066 10.52365
143.629074 6.364899
143.650085 18.71069
143.866989 17.03261
144.048325 21.339291
144.099564 2849.76001
144.129822 5.34375
144.19548 35.160309
144.259323 6.666667
144.271866 6.337963
144.308655 18.609909
144.350906 6.49359
144.372162 8.372808
144.424149 10.00595
144.455811 21.669189
144.493118 16.680559
144.541672 20.60088
144.586853 22.029591
144.865829 7.012931
145.07486 86.916656
145.158234 13.45581
146.255081 22.00066
146.727127 19.722019
148.072464 112.764397
148.133301 5.671875
148.315506 9.369048
153.218765 19.76959
153.267563 6.003205
153.404297 6.333333
153.442398 11.82353
153.672745 17.56214
153.82309 12.74242
154.084 5311.596191
154.138184 32.729149
154.190872 49.952278
154.267273 7.692073
154.280228 5.346264
154.30278 22.447371
154.327621 20.012819
154.349075 31.442181
154.392593 13.48457
154.421066 14.81587
154.470413 9.370833
154.514664 11.1201
154.571594 9.04344
154.820847 17.14167
155.245056 18.45336
155.322403 11.83333
155.481277 7.382936
155.55336 8.333333
156.391846 7.605556
158.053436 73.465317
161.836411 6.666667
162.087112 62.460251
164.022171 7.337719
170.378494 10.89851
170.73703 7.334459
170.823654 14.17729
170.873962 10.45581
171.035507 25.53743
171.045532 10.13333
171.055725 30.279169
171.082092 106.2994
171.117004 91.696518
171.137512 41.502819
171.151428 55.524368
171.161987 28.716669
171.196075 16.08333
171.206161 72.95089
171.219437 10.675
171.248886 122.647903
171.258743 12.92857
171.272766 22.546721
171.290482 16.242649
171.306427 69.628471
171.323273 12.12121
171.337952 50.771179
171.356461 19.412479
171.369461 15.87852
171.38559 68.479797
171.401321 13.33452
171.448761 74.492569
171.471756 68.062943
171.531448 15.7228
171.568848 12.37306
171.677505 10.90675
171.686447 8.551471
171.726639 30.005951
171.75679 12.66945
171.845947 16.614031
171.907455 12.18841
171.993958 26.006411
172.003067 6.334677
172.01741 27.9734
172.035019 13.84444
172.06221 40.870972
172.094864 81313.007812
172.150436 98.381813
172.168945 86.513359
172.190216 13.83681
172.218033 29.33507
172.264297 30.10816
172.288635 33.946838
172.404816 13.00708
172.478622 46.099041
172.493958 88.773277
172.520706 130.433304
172.552017 53.67812
172.564911 58.053009
172.581589 17.499241
172.600418 39.45639
172.617279 11.91667
172.637604 69.597153
172.651993 63.682999
172.694229 61.769371
172.712814 85.172928
172.7285 51.85218
172.744919 92.657692
172.759842 32.876961
172.771912 29.29459
172.787872 46.821121
172.805084 12.31285
172.82457 22.800819
172.853622 50.478081
172.879913 41.60688
172.911377 83.638268
172.960541 43.183659
173.000168 26.10677
173.010132 19.485609
173.046921 58.115871
173.098724 1344.810059
173.183197 18.39015
173.257263 38.63892
173.336319 14.52632
173.441254 10.46558
173.522736 7.94697
173.583649 13.30769
173.621552 13.92004
173.7854 20.129311
173.938446 6.033602
173.998093 11.73848
174.01651 40.437679
174.074966 10.10714
174.126984 8.840278
174.180695 10.41026
174.335556 7.708333
174.466583 10.05235
174.596939 23.19467
174.719818 14.40374
175.041336 5.671875
175.331955 7.240079
175.468536 9.001985
175.610748 11.23132
175.68718 9.272727
175.728012 12.83333
175.843109 13.35299
175.926163 24.514469
176.100861 61.518681
176.161575 14.87076
176.490585 8.852564
176.831726 26.68926
178.134064 11.42803
185.541016 7.078432
186.126221 245.801102
186.32373 9.240384
186.475861 14.00595
190.105972 131.510696
202.114151 69.602997
202.225052 13.00144
202.592377 16.447531
202.989716 19.846149
203.076691 22.34058
203.210571 6.349638
203.240326 6.415
203.994034 7.481667
204.135406 1764.828003
204.194702 8.001985
204.217804 2.333333
204.268265 12.06667
204.313004 3.010417
204.427383 7.0
204.521912 18.008551
204.577087 12.93452
204.637772 9.053572
204.83049 8.371913
204.929276 26.077681
205.129333 6.692308
205.144272 12.60682
206.421844 8.136261
206.946991 8.763095
212.394562 56.575298
212.574921 15.93548
212.835114 9.426724
212.960205 11.47222
213.788849 24.53005
214.11911 484.677185
214.379303 9.166667
214.394897 23.787729
214.547424 8.676282
214.741104 8.704166
214.955795 10.22685
217.718353 8.001437
220.125702 119.841202
228.136551 15.68314
228.852432 7.692308
228.999649 5.120098
229.137177 38.970242
229.859665 25.05307
230.396912 8.363637
230.532455 12.0
230.587189 5.346264
230.601364 26.897779
230.633774 20.08116
230.666412 29.33333
230.694275 52.73925
230.720139 61.48214
230.737991 60.68737
230.764023 43.737068
230.786346 27.388439
230.802643 211.351395
230.8302 138.078094
230.85173 107.160896
230.886124 168.596405
230.908813 54.20903
230.955475 76.69886
230.983704 48.689941
231.006699 74.817947
231.027618 112.952003
231.057556 93.519119
231.073425 40.25
231.1082 20.347219
231.156815 108.546898
231.186295 47.250259
231.20575 36.693451
231.252853 40.566238
231.290146 19.339689
231.366547 23.353861
231.396133 4.668334
231.447556 50.862881
231.484497 49.994839
231.539032 19.684959
231.626785 26.015619
231.660812 18.60615
231.685791 41.018242
231.719604 33.085709
231.735321 29.09524
231.750168 26.80747
231.791946 58.007271
231.869553 39.146679
231.920013 37.591881
231.936447 36.333778
231.948578 35.69091
232.079819 113.151199
232.092407 516.884216
232.1306 133842.703125
232.307922 33.86425
232.357239 47.980389
232.392563 39.563431
232.430206 83.409813
232.466309 119.051201
232.498749 62.250019
232.546402 20.56695
232.605377 83.20192
232.623459 59.801521
232.639328 157.088394
232.655075 65.759148
232.68721 89.489418
232.703613 28.56571
232.72084 115.493698
232.735519 68.621071
232.753952 112.377502
232.821793 197.652695
232.844574 154.208496
232.86676 90.952217
232.902847 189.632904
232.947464 138.1362
232.98175 37.40152
233.017349 37.656029
233.034912 12.91686
233.04718 30.89352
233.180496 65.559982
233.192688 37.903629
233.252014 14.68
233.27211 8.966954
233.295181 28.15556
233.367203 27.919769
233.384644 25.78199
233.522827 61.869831
233.546402 54.491379
233.574127 91.75827
233.661606 78.804611
233.769562 71.145699
233.836975 6.25
234.00177 9.082317
234.113541 8.086538
234.326508 8.136261
234.395737 20.01667
234.411545 10.16263
234.424423 9.280702
234.45311 14.63209
234.70961 13.72024
234.821274 13.61742
234.843353 12.8125
234.961563 15.44971
235.029984 10.85799
235.077927 12.12927
235.099319 9.333333
235.15657 25.559629
235.381226 9.598684
235.435486 7.719017
235.590332 15.65278
235.730652 5.787037
235.819977 20.594151
235.97406 17.280041
236.454742 11.97283
236.542358 39.633942
236.739746 4.355392
237.718094 5.415
238.26236 9.136261
239.931763 8.027778
240.20842 7.453703
241.41951 15.86722
244.719101 12.68056
245.719238 17.22024
247.14064 774.135986
247.270706 23.682289
247.528931 23.51029
247.566422 7.564103
248.12355 34.753139
249.130646 52.515041
249.617233 7.061274
253.452209 7.102273
255.861115 6.606061
259.996796 9.926471
261.09436 11.0732
261.197845 5.160714
263.112946 7.019608
263.433807 9.916667
263.464081 14.02222
263.481842 24.14015
263.524414 12.03333
263.565277 27.09524
263.584259 20.66667
263.612915 32.828758
263.631897 26.08333
263.648285 41.25304
263.686401 31.48901
263.716492 8.347222
263.741394 43.258419
263.764862 29.22274
263.78064 5.041667
263.796204 17.03141
263.825592 22.09667
263.839386 17.23241
263.864044 43.68576
263.97345 77.20417
264.051361 20.439289
264.35022 17.75667
264.493286 20.667271
264.667053 7.725
264.717987 20.366671
264.798462 13.26453
265.046417 14.6832
265.087036 54.16573
265.123901 52.768921
265.151794 30192.880859
265.223328 23.80278
265.270447 20.114201
265.297058 57.690109
265.38562 164.214798
265.412476 172.831497
265.443146 37.262112
265.474213 55.81559
265.497772 45.755402
265.526917 72.157219
265.550262 39.4953
265.564514 77.061432
265.593353 105.322701
265.611359 69.447868
265.642517 86.696053
265.675446 70.078827
265.720551 21.75494
265.73175 39.703079
265.766022 29.489229
265.798828 48.268829
265.862213 78.011482
265.930664 24.0
266.002686 57.596069
266.074005 23.15432
266.217804 29.585449
266.322235 8.442204
266.430939 23.37089
266.62912 6.564103
266.896881 7.037879
267.219238 13.81349
267.345154 14.05631
267.610931 7.779321
267.681061 9.102564
267.81192 16.46209
268.0513 9.698232
268.284515 13.67029
268.825684 14.05
269.15155 14.67803
269.236969 3.668651
269.333313 19.725
269.488678 14.24038
271.614655 12.63095
272.173706 6.09375
272.277222 14.08333
272.433014 12.60417
275.385345 12.44983
284.713287 6.592949
332.617554 8.20119
501.515228 16.20577
916.780762 10.00595
994.4151 9.335145
1155.549316 10.02126
