>compound 3-(butylamino)-4-phenoxy-5-sulfamoylbenzoic acid
>formula C17H20N2O5S 
>ionization [M+H]+
>parentmass 365.117462
#inchi InChI=1S/C17H20N2O5S/c1-2-3-9-19-14-10-12(17(20)21)11-15(25(18,22)23)16(14)24-13-7-5-4-6-8-13/h4-8,10-11,19H,2-3,9H2,1H3,(H,20,21)(H2,18,22,23)
#inchikey MAEIEVLCKWDQJH
#Ion_Source LC-ESI
#Instrument qTof
#Compound_Source Commercial
#PI Dorrestein
#Data_Collector Garg_Neha
#Scan -1
#Precursor_MZ 365.119
#ExactMass 364.109
#Charge 1
#CAS_Number N/A
#Pubmed_ID N/A
#Smiles N/A
#INCHI_AUX N/A
#Library_Class 1
#SpectrumID CCMSLIB00000077072
#IonMode Positive
#UpdateWorkflowName UPDATE-SINGLE-ANNOTATED-GOLD
#LibraryQualityString Gold
#TaskID 48f7f52fc6d249b5abbcc6e7b3df5969
##Scan# 1529
#SpectrumFile NCP003017_G2_H11_2_BB1_01_15712.mzXML
#LibraryName NIH_Clinical_Collection_2.mgf
#MQScore -1
#Organism NIHcollection2_04212014_2_mgf
#TIC_Query 0
#RT_Query -1
#MZErrorPPM -1
#SharedPeaks 0
#MassDiff 0
#LibMZ -1
#SpecMZ 365.119
#SpecCharge 0
#internalFilename spec-00000.mgf

>collision 10
45.150726 140.0
47.502266 140.0
49.785618 160.0
52.182934 148.0
53.627682 192.0
53.739967 168.0
54.566021 204.0
54.617493 160.0
56.313179 160.0
57.289692 148.0
58.324745 156.0
65.669823 172.0
66.029991 148.0
68.098289 168.0
72.339043 208.0
74.456779 208.0
76.274445 232.0
78.824547 176.0
81.475845 148.0
83.006424 164.0
84.063309 148.0
84.974525 160.0
85.117691 148.0
87.012093 188.0
88.445648 176.0
89.608078 144.0
91.930901 152.0
99.131187 152.0
99.3116 156.0
102.607193 164.0
102.740303 188.0
105.913567 188.0
108.043762 124.0
110.022636 156.0
112.922462 180.0
114.178009 140.0
114.350334 148.0
115.062302 208.0
118.840981 164.0
125.023537 144.0
127.047905 144.0
128.048172 160.0
128.783432 208.0
129.074783 392.0
132.042694 160.0
137.391403 164.0
137.481262 220.0
139.056427 476.0
140.032013 172.0
141.072647 304.0
141.73291 180.0
141.934067 152.0
142.07431 180.0
144.09079 216.0
145.064789 208.0
150.062042 160.0
151.484375 180.0
152.033417 328.0
152.063873 260.0
153.036499 156.0
153.069839 148.0
154.077286 176.0
154.423355 176.0
155.394394 208.0
156.080215 4096.0
157.083817 476.0
160.071106 148.0
164.03363 144.0
164.107574 160.0
164.725159 140.0
166.064423 300.0
166.086929 344.0
166.687683 232.0
167.071945 140.0
168.059509 332.0
168.087112 316.0
168.710938 140.0
169.064728 276.0
170.064636 276.0
170.097244 300.0
171.037796 200.0
171.075638 368.0
171.103134 200.0
172.038788 176.0
172.36264 184.0
174.212341 196.0
176.0112 160.0
179.250015 224.0
180.084686 156.0
181.046967 124.0
182.060455 464.0
183.068649 1992.0
183.131943 192.0
184.00563 140.0
184.075363 5832.0
184.143341 152.0
185.011322 148.0
185.080246 884.0
186.050766 188.0
190.091904 192.0
190.253845 156.0
192.332153 176.0
193.091888 148.0
193.742447 184.0
194.058563 120.0
195.065872 312.0
196.0755 3356.0
197.08049 556.0
197.276703 144.0
198.093109 152.0
200.068787 196.0
200.724472 160.0
206.07782 188.0
208.013779 144.0
208.099899 196.0
208.125748 172.0
209.082184 376.0
210.063416 160.0
210.088852 140.0
210.129333 160.0
211.097977 168.0
212.083817 180.0
212.145035 1356.0
213.079163 180.0
213.145157 432.0
214.085907 176.0
215.082672 176.0
216.016403 124.0
222.056763 124.0
222.092773 172.0
222.112442 240.0
224.068497 156.0
225.056641 156.0
226.904724 184.0
226.952698 216.0
227.05481 480.0
228.067719 204.0
229.026184 124.0
229.077789 176.0
230.085892 176.0
236.72847 140.0
238.121902 1976.0
239.130081 660.0
240.015274 128.0
240.063751 1332.0
240.138763 13680.0
240.428436 124.0
241.066193 268.0
241.141708 1944.0
241.191071 148.0
241.532791 176.0
242.082169 824.0
242.142395 200.0
242.845428 116.0
243.084061 432.0
246.019974 160.0
247.880936 164.0
248.117126 180.0
253.975113 160.0
254.041718 176.0
256.098419 120.0
256.130615 180.0
257.1409 148.0
265.947113 168.0
266.116302 960.0
267.119812 584.0
272.685211 156.0
274.080505 160.0
275.849487 180.0
283.121918 720.0
283.350647 176.0
284.129303 15856.0
284.736542 96.0
285.133667 2768.0
285.187317 192.0
285.874695 100.0
286.132812 388.0
287.140228 148.0
287.972595 212.0
292.029541 1968.0
293.031189 676.0
294.04129 260.0
295.211548 160.0
309.054596 292.0
310.025574 164.0
312.70874 148.0
315.930328 148.0
321.054749 188.0
322.06778 172.0
323.049286 168.0
334.575531 160.0
348.091614 2624.0
349.095703 336.0
350.08844 284.0
351.083832 204.0
363.096069 164.0
363.171936 164.0
363.231201 128.0
363.475433 164.0
364.119476 188.0
364.641266 148.0
364.967712 128.0
365.031586 172.0
365.117462 19044.0
366.118927 3084.0
367.118317 864.0
368.116211 260.0
368.566345 144.0
368.63678 132.0
371.000488 152.0
1691.404907 208.0
1721.298096 180.0
1845.591675 152.0
1853.989136 188.0
