>compound MLS001074339-01!9-methyl-3-oxa-9-azatricyclo[3.3.1.0~2,4~]non-7-yl 3-hydroxy-2-phenylpropanoate hydrochloride55-16-3
>formula C17H21NO4
>ionization [M+H]+
>parentmass 304.15433460409054
#inchi InChI=1S/C17H21NO4/c1-18-13-7-11(8-14(18)16-15(13)22-16)21-17(20)12(9-19)10-5-3-2-4-6-10/h2-6,11-16,19H,7-9H2,1H3
#inchikey STECJAGHUSJQJN
#origInchi InChI=1S/C17H21NO4.ClH/c1-18-13-7-11(8-14(18)16-15(13)22-16)21-17(20)12(9-19)10-5-3-2-4-6-10;/h2-6,11-16,19H,7-9H2,1H3;1H
#Ion_Source LC-ESI
#Instrument qTof
#Compound_Source NIH Pharmacologically Active Library
#PI Dorrestein
#Data_Collector VP/LMS
#Scan -1
#Precursor_MZ 304.16
#ExactMass 303.147
#Charge 1
#CAS_Number N/A
#Pubmed_ID N/A
#Smiles CN1C2CC(CC1C3OC32)OC(=O)C(CO)c4ccccc4.Cl
#INCHI_AUX N/A
#Library_Class 1
#SpectrumID CCMSLIB00000086077
#IonMode Positive
#UpdateWorkflowName UPDATE-SINGLE-ANNOTATED-GOLD
#LibraryQualityString Gold
#TaskID d252d724072548979f1f6f1ced849daf
##Scan# 1152
#SpectrumFile p5-D04_GD4_01_18455.mzXML
#LibraryName Pharm_Active_Library.mgf
#MQScore -1
#Organism Pharm_Active_Library
#TIC_Query 0
#RT_Query -1
#MZErrorPPM -1
#SharedPeaks 0
#MassDiff 0
#LibMZ -1
#SpecMZ 304.16
#SpecCharge 0
#internalFilename spec-00000.mgf

>collision 10
44.911392 180.0
45.002136 188.0
45.088963 68.0
45.324478 152.0
45.412956 240.0
45.544701 196.0
45.703125 168.0
46.378349 168.0
46.678379 152.0
46.920734 180.0
47.611729 144.0
47.68317 248.0
48.378353 152.0
48.394966 136.0
48.718105 176.0
48.996334 224.0
49.032562 128.0
49.144119 156.0
49.328461 200.0
50.141136 232.0
50.251125 140.0
50.594547 204.0
50.924938 180.0
51.135357 144.0
51.974201 248.0
52.064636 64.0
52.135025 180.0
52.353691 152.0
52.86327 76.0
53.044308 164.0
53.164688 132.0
53.286659 136.0
53.821186 252.0
54.011169 192.0
54.205883 120.0
54.452339 148.0
54.76561 100.0
54.949875 108.0
55.325253 192.0
55.666264 228.0
55.782146 220.0
56.514397 156.0
56.824535 112.0
57.334278 204.0
57.685951 188.0
57.698044 64.0
58.334743 152.0
58.646782 152.0
58.845093 160.0
58.909233 136.0
59.840118 152.0
60.046604 56.0
60.159241 176.0
60.561272 180.0
60.998837 164.0
61.28986 160.0
61.520683 160.0
61.650318 120.0
62.060429 228.0
62.201622 232.0
62.311546 196.0
62.393269 184.0
62.608833 196.0
63.079006 124.0
64.313202 152.0
64.330757 128.0
64.993332 172.0
65.38221 252.0
65.928909 120.0
66.095459 128.0
66.178009 92.0
66.425957 124.0
67.192169 200.0
68.284744 136.0
68.327515 136.0
68.343964 116.0
68.472366 200.0
68.793884 120.0
69.694839 116.0
69.8927 140.0
70.06147 196.0
70.285934 124.0
70.457901 136.0
71.289223 156.0
71.566505 212.0
71.832779 56.0
71.925583 176.0
72.716003 60.0
72.969101 168.0
73.100067 148.0
73.389633 148.0
73.650734 164.0
73.866104 264.0
74.658493 168.0
74.954575 180.0
76.40818 124.0
76.586517 172.0
76.874176 60.0
77.006859 52.0
77.0383 200.0
77.188606 136.0
77.840446 196.0
78.241325 144.0
78.865768 148.0
79.023155 44.0
79.147049 232.0
79.285225 92.0
79.389816 188.0
79.76088 168.0
79.773323 216.0
79.812431 164.0
80.148842 176.0
80.311066 124.0
80.439537 156.0
80.607414 212.0
81.424301 176.0
81.591408 196.0
81.641754 116.0
81.729897 76.0
81.774879 188.0
81.974777 88.0
82.494576 176.0
82.628395 132.0
83.459068 164.0
83.81218 156.0
83.859558 236.0
84.361519 216.0
84.436485 192.0
85.050255 160.0
85.797089 196.0
85.940948 232.0
85.990768 172.0
86.293716 184.0
87.032982 104.0
87.341476 212.0
88.288933 76.0
88.315109 144.0
88.444214 204.0
88.715828 152.0
88.856476 176.0
89.17382 92.0
89.262177 152.0
89.589661 180.0
90.431816 172.0
90.473465 228.0
90.61171 236.0
91.056076 972.0
91.818733 196.0
91.847343 124.0
92.007637 168.0
92.252159 140.0
92.498924 124.0
92.613808 152.0
92.92244 216.0
93.066811 328.0
93.081741 208.0
93.16433 120.0
93.521988 228.0
93.650986 220.0
93.94725 212.0
94.066765 380.0
94.27607 180.0
95.042877 176.0
95.06958 168.0
95.147682 56.0
95.42939 168.0
95.713463 152.0
96.043518 688.0
96.064064 152.0
96.085228 156.0
96.113045 192.0
96.997009 144.0
97.053116 1132.0
97.085236 156.0
97.587914 196.0
98.018967 160.0
98.06031 1040.0
98.314758 176.0
98.78302 100.0
99.066185 356.0
99.391235 180.0
99.681137 80.0
100.499504 124.0
100.948929 136.0
101.261124 228.0
102.048401 532.0
102.277069 76.0
102.39183 148.0
102.506653 80.0
102.609444 128.0
102.837387 56.0
102.950447 84.0
102.995605 200.0
103.013054 192.0
103.055222 13936.0
103.140358 64.0
103.168655 60.0
103.227287 112.0
103.334488 112.0
103.534882 56.0
103.729385 168.0
103.986984 156.0
104.058495 2188.0
104.181908 52.0
104.497025 68.0
104.53772 32.0
104.688354 120.0
104.883942 84.0
104.916557 176.0
105.104187 132.0
105.322632 116.0
105.3451 136.0
105.950623 124.0
106.755211 180.0
106.781944 240.0
107.046555 244.0
107.070068 156.0
107.558708 56.0
108.080536 752.0
108.336212 92.0
108.354858 68.0
108.400444 84.0
108.715645 208.0
109.052887 236.0
109.088852 412.0
109.318283 132.0
109.582718 48.0
110.060379 1644.0
110.077049 184.0
110.096397 2112.0
110.135002 64.0
110.198196 64.0
110.229538 84.0
110.35704 60.0
110.545288 68.0
110.725327 72.0
110.830063 76.0
111.06646 204.0
111.097481 404.0
111.67186 84.0
111.787567 116.0
111.808609 188.0
112.084473 92.0
112.14769 56.0
112.341682 208.0
113.210365 148.0
113.731903 160.0
114.057373 192.0
115.057999 208.0
115.414879 180.0
115.491867 200.0
117.075752 132.0
117.351562 144.0
117.653603 152.0
118.462379 164.0
118.930748 108.0
119.080559 112.0
119.589317 176.0
119.780922 224.0
119.804886 168.0
119.911652 96.0
119.955246 192.0
120.003204 160.0
120.083 768.0
120.112244 152.0
120.168961 60.0
120.286804 152.0
120.806885 168.0
121.065201 4768.0
121.124283 48.0
121.28643 28.0
121.369736 84.0
121.973457 212.0
122.069115 356.0
122.265976 144.0
122.587494 208.0
122.86972 168.0
123.069107 492.0
124.081657 168.0
124.996742 172.0
126.096153 108.0
127.22731 52.0
127.690186 288.0
128.923355 136.0
129.581802 36.0
131.013062 220.0
132.424698 184.0
132.621735 196.0
132.974945 84.0
133.284958 160.0
133.940613 188.0
135.154938 128.0
135.481384 236.0
135.650543 128.0
135.71315 40.0
136.08699 220.0
136.119202 212.0
136.84697 64.0
137.079895 200.0
137.2827 60.0
137.350327 148.0
137.88266 120.0
137.950439 200.0
138.006546 212.0
138.091934 12000.0
138.135971 164.0
138.156036 48.0
138.238113 92.0
138.774506 48.0
138.891769 48.0
138.962143 44.0
139.05365 116.0
139.095078 952.0
139.196854 72.0
139.563416 60.0
139.862183 56.0
140.026993 116.0
140.045822 92.0
140.071671 132.0
140.095505 184.0
140.227249 80.0
140.543243 60.0
140.566833 80.0
140.614029 60.0
140.980087 144.0
141.032074 52.0
141.886612 52.0
142.173615 72.0
143.737045 60.0
144.073685 160.0
150.151794 88.0
150.974792 180.0
151.305115 28.0
152.187729 156.0
152.521835 120.0
153.011353 68.0
154.079453 180.0
154.102509 216.0
154.858414 116.0
155.681778 156.0
156.101532 4932.0
156.203705 36.0
156.277588 132.0
156.427658 188.0
156.572067 80.0
156.609421 64.0
156.886017 136.0
157.105942 744.0
158.014832 48.0
158.101013 168.0
158.117416 164.0
158.97699 44.0
159.278275 76.0
160.905045 140.0
166.086212 192.0
169.512512 40.0
170.02597 208.0
170.878265 132.0
176.01297 200.0
183.621475 188.0
186.094757 40.0
187.228653 56.0
196.167282 80.0
197.037964 100.0
197.728622 72.0
201.109711 72.0
202.784073 48.0
202.874786 112.0
211.957764 44.0
221.924011 176.0
225.514114 124.0
227.14595 140.0
231.125702 176.0
231.937317 128.0
233.120941 140.0
238.976547 136.0
248.995697 40.0
255.949677 32.0
257.815765 48.0
259.162903 200.0
272.906311 180.0
285.01889 180.0
304.152252 1064.0
305.157288 388.0
306.156799 196.0
307.256775 116.0
371.161224 64.0
400.201111 28.0
442.696808 88.0
450.667847 68.0
522.923584 92.0
555.670837 128.0
561.008545 172.0
594.293274 60.0
748.217834 132.0
803.891418 156.0
815.654602 236.0
818.482056 248.0
832.388367 204.0
836.130676 176.0
866.066833 224.0
894.242615 160.0
907.324219 160.0
909.495667 124.0
961.65564 140.0
972.306824 164.0
974.691345 112.0
977.893982 244.0
980.09845 164.0
995.806458 152.0
998.093872 152.0
1011.386169 180.0
1016.608337 188.0
1020.241394 148.0
1025.499146 168.0
1027.437622 208.0
1028.618164 156.0
1039.575195 184.0
1045.236328 200.0
1048.204712 188.0
1066.532593 196.0
1066.760132 68.0
1071.126343 200.0
1074.385742 212.0
1074.842407 224.0
1075.605957 192.0
1081.479126 156.0
1083.583984 128.0
1084.36377 128.0
1089.422729 220.0
1102.646851 168.0
1106.774658 160.0
1117.899658 188.0
1118.352173 132.0
1123.322876 180.0
1131.763672 44.0
1134.034546 176.0
1134.249023 164.0
1135.341919 180.0
1139.50354 176.0
1147.188843 184.0
1147.445068 192.0
1159.449707 92.0
1162.670898 188.0
1166.807495 108.0
1167.011475 184.0
1178.584839 160.0
1188.794312 212.0
1189.260986 116.0
1191.417114 132.0
1193.595825 40.0
1198.276123 176.0
1203.393555 180.0
1211.000122 196.0
1214.736084 260.0
1215.457642 180.0
1215.978149 236.0
1216.172485 72.0
1217.172119 168.0
1220.896729 172.0
1228.579346 204.0
1229.465454 164.0
1231.713501 196.0
1234.648926 192.0
1238.603394 160.0
1241.708252 160.0
1253.271851 176.0
1255.746216 156.0
1261.458374 192.0
1280.210327 176.0
1282.825195 224.0
1282.882202 36.0
1283.174438 156.0
1288.848633 176.0
1288.984375 204.0
1291.522217 160.0
1293.246582 176.0
1296.677246 144.0
1299.495239 184.0
1308.694946 132.0
1308.752563 204.0
1310.387451 148.0
1315.096313 116.0
1318.64978 144.0
1320.486084 180.0
1323.692017 64.0
1324.944946 156.0
1328.722046 132.0
1330.75415 208.0
1331.102661 128.0
1331.298706 160.0
1338.541382 176.0
1339.225952 200.0
1339.560913 164.0
1339.866943 180.0
1342.614868 156.0
1343.67981 116.0
1344.445923 160.0
1347.534546 84.0
1348.988892 148.0
1349.82959 136.0
1350.078247 180.0
1350.297607 28.0
1350.838867 132.0
1352.390137 240.0
1353.590698 176.0
1355.121582 120.0
1356.088867 200.0
1360.915649 144.0
1362.950195 144.0
1363.90564 96.0
1371.678467 60.0
1373.123657 124.0
1374.112061 184.0
1374.252197 272.0
1374.517822 140.0
1377.057373 156.0
1378.342651 136.0
1381.484863 64.0
1382.690918 172.0
1382.920288 168.0
1383.69751 172.0
1384.015869 192.0
1385.593506 132.0
1388.187622 200.0
1388.751221 204.0
1391.942383 144.0
1392.707275 196.0
1394.736206 216.0
1396.564819 192.0
1397.569092 100.0
1399.980835 116.0
1400.956543 200.0
1403.691772 36.0
1407.295654 104.0
1410.052002 128.0
1411.801392 180.0
1412.122925 176.0
1413.828735 124.0
1416.763794 140.0
1421.036987 108.0
1421.472168 132.0
1422.583008 40.0
1427.887573 88.0
1428.865479 224.0
1434.920532 140.0
1438.118896 192.0
1438.820923 228.0
1440.180176 192.0
1440.376587 148.0
1441.721436 180.0
1450.52356 200.0
1452.252319 236.0
1454.278076 156.0
1458.820435 124.0
1460.942017 168.0
1461.908325 228.0
1462.433472 132.0
1464.36731 120.0
1466.729248 232.0
1467.438232 124.0
1467.552612 144.0
1467.90332 188.0
1469.627075 60.0
1469.848389 192.0
1470.787109 136.0
1472.191895 92.0
1473.345215 204.0
1475.974365 164.0
1478.269043 144.0
1481.323853 92.0
1482.771973 144.0
1486.744507 172.0
1487.734619 196.0
1489.078369 164.0
1491.106567 220.0
1492.997803 204.0
1499.603271 136.0
1500.235352 160.0
