>compound Erdosteine
>formula C8H11NO4S2 
>ionization [M+H]+
>parentmass 250.02
#inchi InChI=1S/C8H11NO4S2/c10-6(3-14-4-7(11)12)9-5-1-2-15-8(5)13/h5H,1-4H2,(H,9,10)(H,11,12)
#inchikey QGFORSXNKQLDNO
#Ion_Source LC-ESI
#Instrument qTof
#Compound_Source Isolated
#PI Sirenas
#Data_Collector Ed Esquenazi 
#Scan -1
#Precursor_MZ 250.02
#ExactMass 0.0
#Charge 1
#CAS_Number N/A
#Pubmed_ID N/A
#Smiles N/A
#INCHI_AUX N/A
#Library_Class 3
#SpectrumID CCMSLIB00000005960
#IonMode Positive
#UpdateWorkflowName UPDATE-SINGLE-ANNOTATED-BRONZE
#LibraryQualityString Bronze
#TaskID d19310cd93df49b68e9fcbec27720eb5
##Scan# 2
#SpectrumFile Erdosteine.mgf
#LibraryName fda_library.mgf
#MQScore -1
#Organism fda_library
#TIC_Query 0
#RT_Query -1
#MZErrorPPM -1
#SharedPeaks 0
#MassDiff 0
#LibMZ -1
#SpecMZ 250.02
#SpecCharge 0
#internalFilename spec-00000.mgf

>collision 10
100.020271 238.017303
100.33503 3.080128
101.004448 78.465012
101.730576 2.816667
102.00164 128.298203
102.036812 1756.892944
102.082253 9.285417
102.232628 4.694444
102.250214 10.02042
102.259377 3.760417
102.267807 4.69697
102.359154 28.706369
102.436745 3.677083
102.45787 5.671875
104.016197 347.335693
104.382454 9.066667
104.446465 20.26667
104.482063 4.844298
104.568199 40.048649
104.581635 17.67901
104.589226 13.37306
104.602936 3.025
104.681229 8.380815
104.7062 2.6875
104.781609 11.7193
105.000404 5573.433105
105.030693 112.797096
105.043655 15.34087
105.055489 23.763889
105.098091 5.010417
105.123802 14.04482
105.165863 25.336809
105.189667 16.783331
105.201546 14.1589
105.230103 3.080128
105.252808 21.83688
105.315758 19.667219
105.340752 8.676802
105.376518 27.087151
105.408607 1.666667
105.42646 2.333333
105.43718 2.666667
105.4767 18.93178
105.617653 9.791667
105.633743 9.019608
105.657509 22.7787
106.349808 2.361111
107.270477 6.33477
110.179649 2.333333
112.017151 28.97127
112.023041 31.948099
113.633385 3.958333
114.03772 261.450989
114.131874 26.29348
114.147896 3.708333
114.229378 15.65278
114.317627 4.017857
114.452393 17.357559
115.571838 11.69482
116.014969 106.156303
117.434296 11.70379
117.453491 9.260802
117.468224 23.077881
117.494614 13.40833
117.656837 17.66733
117.819145 20.44928
117.876183 14.22075
118.031784 3569.013916
118.07618 3.761364
118.094254 11.06586
118.102524 2.337963
118.121429 5.669117
118.193275 3.011905
118.206512 4.5
118.216125 13.90645
118.23867 3.358333
118.256401 19.27047
118.29567 12.75556
118.31665 33.30135
118.397598 6.002451
118.412788 10.96037
118.420311 8.732527
118.489479 12.30616
118.522636 4.695513
118.608749 6.963235
118.699791 10.58333
118.844696 3.355392
118.888832 4.721154
119.327339 23.21887
119.444672 3.336538
120.978287 50.170731
121.127281 6.666667
124.021698 3.333333
127.322945 13.00765
128.015182 71.413643
128.117615 5.773809
128.953278 2.666667
129.483109 16.461361
129.588028 27.84503
130.032059 1091.734009
130.069733 5.002193
130.142365 6.533333
130.216248 16.2894
130.272171 3.760417
130.304718 17.472219
130.379395 9.340686
130.450897 8.046875
130.995819 44.676041
131.418228 5.422101
131.568741 7.458333
132.010605 274.761597
132.355103 15.66667
134.010071 31.03582
134.204605 11.00093
141.416412 31.69565
141.682571 18.853451
142.031601 2493.945068
142.083679 20.51716
142.191208 10.65878
142.302948 3.342592
142.327881 4.427083
142.336166 5.813406
142.373657 29.1875
142.52713 10.68627
142.747131 13.00758
142.978699 5.125
143.992203 79.324821
146.009766 101.055
146.041428 3.0
148.027313 131.874603
157.176758 2.4
158.008011 216.133896
158.050247 3.0
158.19899 7.380208
170.023544 19.116671
171.908981 5.333333
171.990021 63.54353
175.079895 17.10887
175.102188 10.42391
175.212692 10.50347
175.277634 17.902781
175.450623 3.777778
175.641235 1.720238
175.917221 6.413462
176.019012 3332.783936
176.08313 19.13043
176.108276 33.857601
176.13591 8.890432
176.185669 16.37126
176.204742 32.949921
176.218002 4.666667
176.228394 4.964286
176.254456 2.720238
176.287308 9.642095
176.305756 8.354167
176.319321 15.64423
176.50444 5.705246
176.522934 6.030303
176.555283 7.671568
176.600769 20.441389
176.635101 12.48214
176.690384 18.445101
176.72612 10.01786
176.77713 17.030001
177.008575 19.37126
177.020386 29.52133
177.309555 10.05128
186.005356 169.557297
188.03772 48.5625
188.429657 7.666667
202.755798 4.342593
202.869736 13.33412
202.889557 12.68056
202.904434 9.122549
203.011734 1.6875
203.097122 8.948333
203.939636 4.721154
204.013779 3469.312988
204.074539 21.305889
204.100464 8.343469
204.115372 7.078432
204.142532 8.088768
204.189529 23.69318
204.208725 15.87093
204.227936 15.17459
204.275085 10.33333
204.313736 5.335
204.332169 17.122471
204.438568 9.157895
204.463547 12.075
204.55011 25.22559
204.610245 20.58333
204.667236 20.067209
204.856613 5.335
206.648056 6.027778
230.874557 11.89851
232.011551 54.075619
250.017593 33.27837
250.494583 10.89352
417.910431 19.047621
