>compound Rifamycin S
>formula C37H45NO12 
>ionization [M+H]+
>parentmass 696.3014523320905
#inchi InChI=1S/C37H45NO12/c1-16-11-10-12-17(2)36(46)38-23-15-24(40)26-27(32(23)44)31(43)21(6)34-28(26)35(45)37(8,50-34)48-14-13-25(47-9)18(3)33(49-22(7)39)20(5)30(42)19(4)29(16)41/h10-16,18-20,25,29-30,33,41-43H,1-9H3,(H,38,46)/b11-10+,14-13+,17-12-/t16-,18+,19+,20+,25-,29-,30+,33+,37-/m0/s1
#inchikey BTVYFIMKUHNOBZ
#Ion_Source LC-ESI
#Instrument qTof
#Compound_Source Isolated
#PI Fenical-Jensen-Moore
#Data_Collector Max
#Scan -1
#Precursor_MZ 696.304
#ExactMass 695.297
#Charge 1
#CAS_Number N/A
#Pubmed_ID N/A
#Smiles N/A
#INCHI_AUX N/A
#Library_Class 1
#SpectrumID CCMSLIB00000001653
#IonMode Positive
#UpdateWorkflowName UPDATE-SINGLE-ANNOTATED-GOLD
#LibraryQualityString Gold
#TaskID d14a5843653040ba9fa2c4376f2be358
##Scan# 2
#SpectrumFile e3.mgf
#LibraryName gnps_library.mgf
#MQScore -1
#Organism gnps_library
#TIC_Query 0
#RT_Query -1
#MZErrorPPM -1
#SharedPeaks 0
#MassDiff 0
#LibMZ -1
#SpecMZ 696.304
#SpecCharge 0
#internalFilename spec-00000.mgf

>collision 10
103.054176 18.04487
105.070381 295.506195
106.071854 42.706749
107.046814 20.7407
107.085564 775.9646
107.181488 15.25821
108.056496 30.850241
108.088524 125.501404
109.025223 11.15094
109.06488 567.16272
109.100075 292.594208
109.162949 16.910061
110.067719 45.87772
110.104111 34.552979
111.043755 24.42742
111.080009 306.520203
112.083275 31.620529
113.05703 12.16522
115.051247 19.10371
117.069756 72.006264
118.071548 21.524691
119.08445 220.437103
120.089607 41.199951
121.063927 266.279388
121.100105 241.512497
122.069283 38.77269
122.105797 22.154421
123.0429 13.88265
123.080284 1176.656006
123.184944 27.07131
124.083336 112.614502
125.060051 10.59524
125.095467 101.340897
126.097725 13.05739
128.060745 21.896099
129.067856 26.15233
130.075745 35.996059
131.084396 53.430771
132.093369 13.48214
133.06424 109.8825
133.100449 262.051788
134.10463 29.7031
135.080505 307.930511
135.114349 119.400101
136.079132 93.492317
137.095032 197.753693
138.099747 32.038311
139.074463 28.6446
139.110031 35.15657
142.074951 38.67712
143.083664 83.309036
144.089645 19.50849
145.100739 298.851501
146.105103 71.019943
147.079514 37.763241
147.116547 197.013397
148.085037 23.753019
148.118408 25.45504
149.059662 38.190651
149.094788 98.190567
149.127045 36.741459
150.100189 15.61722
151.075241 1126.338989
151.193176 16.677191
152.078705 162.298599
153.08992 130.234604
154.092438 24.53231
155.100845 23.995319
156.089951 19.47629
157.100647 75.880669
158.070038 22.95652
158.106537 23.560881
159.078949 32.014709
159.115753 69.777039
160.079666 38.776859
160.117294 12.64011
161.095184 272.773804
162.09552 56.65963
163.070145 10.39996
163.111374 537.973816
164.081223 10.80249
164.113556 71.083344
165.091217 18.60611
165.125397 30.51722
167.102448 11.6497
168.091293 14.66721
169.104095 27.624599
170.106247 24.90003
171.116592 67.881683
172.118713 35.871479
173.095993 149.246201
173.130112 144.485397
174.051971 14.02908
174.102829 11.94191
174.135941 18.995621
175.07312 22.58672
175.109512 120.549202
176.117004 11.68614
177.091263 78.703934
178.095032 21.76832
179.107056 256.1474
180.108627 31.777889
181.12027 24.72447
183.115799 20.160709
184.121094 10.55057
185.128677 47.602741
186.100662 27.44347
186.134491 17.439831
187.107666 26.90139
187.149124 18.29101
188.06926 15.04817
189.056808 17.02916
189.125671 40.24596
190.090134 11.35197
191.105042 163.8591
192.108231 49.994511
193.121429 19.78126
194.105515 11.69969
195.117737 15.47109
196.082153 10.05952
196.122513 18.446699
197.094727 11.58149
197.128326 19.28628
198.104691 14.50447
198.135849 12.77381
199.112274 23.88105
199.143326 22.94689
201.125534 54.375401
202.04631 24.806669
203.106369 12.83401
203.14296 31.116751
205.047394 36.471611
207.108231 21.426359
208.12384 16.799629
209.130066 38.293732
210.130753 22.62215
211.109711 29.672621
211.145294 16.49563
212.148041 19.6506
213.125839 32.72168
214.129639 11.77381
216.066956 20.542999
217.068573 23.204121
217.11795 19.933029
218.127335 21.470619
219.134811 32.666088
220.122284 12.23639
221.154373 10.67066
223.140503 28.24415
225.12291 17.34767
225.159683 10.93162
227.140503 14.48204
231.064728 12.51855
231.136795 32.302551
232.059341 10.12429
233.040741 20.968201
235.146103 18.40708
236.154938 11.26786
239.143936 11.82755
243.175934 12.73019
244.061569 65.273849
245.052704 18.352779
246.037277 16.19051
246.13858 14.342
249.125732 11.14117
251.1763 12.52285
255.06424 23.11076
256.061493 26.49353
257.042938 103.743698
258.06604 40.952869
259.058289 43.346069
259.160004 13.72789
260.060577 11.80952
267.172607 14.81637
269.189148 25.087429
270.076111 101.879501
271.080719 20.25
271.165771 23.751631
272.054932 693.558105
272.200043 13.49521
273.061768 271.930115
274.069672 167.413803
275.072083 18.86845
278.116119 13.7462
279.175171 14.135
284.062775 17.241831
285.074493 12.03175
295.166779 11.31327
297.182526 29.44268
298.069305 41.678181
299.079803 16.975479
300.046844 10.16259
304.105316 11.5492
306.114105 10.26646
308.121643 10.48701
312.082642 12.7139
313.181335 27.59189
315.192139 24.442789
316.198395 11.6014
320.119843 19.69656
322.105408 16.087669
323.092682 11.55687
324.082886 14.66824
326.059631 22.541321
326.097107 12.37967
332.092224 12.81586
333.102295 13.03429
334.107788 11.92717
338.103638 27.905001
348.114471 17.463671
349.115967 17.336729
350.102264 24.1248
351.106171 18.934641
352.091492 20.912239
360.11438 10.58027
361.105499 11.48295
362.137573 23.89505
363.12262 15.71245
366.126038 49.412849
367.117188 12.71435
374.106964 12.35989
376.126556 15.96315
377.122314 14.73232
378.132324 22.6717
379.13855 20.25778
380.108643 11.79664
390.137421 15.9645
391.130524 16.201481
394.128021 174.9319
395.132202 102.510696
396.134247 27.9291
408.148712 12.99909
420.157623 11.10455
423.137665 13.17316
424.141266 12.85524
436.164429 14.76677
437.174835 10.37449
446.17157 12.03429
459.170959 10.73593
480.165802 62.057281
481.16687 52.211868
482.1763 44.52219
483.179779 16.880791
568.234619 27.333879
569.227783 27.697451
586.246033 96.843842
587.250671 54.791309
588.243469 19.57148
604.258606 84.063927
605.256653 55.26984
606.252258 20.635651
646.262634 37.442001
647.263916 13.37354
664.278137 107.710503
665.279419 64.482758
666.277222 21.81912
667.947388 13.42284
