>compound CortisoneAcetate
>formula C23H30O6 
>ionization [M+H]+
>parentmass 403.212
#inchi InChI=1S/C23H30O6/c1-13(24)29-12-19(27)23(28)9-7-17-16-5-4-14-10-15(25)6-8-21(14,2)20(16)18(26)11-22(17,23)3/h10,16-17,20,28H,4-9,11-12H2,1-3H3/t16-,17-,20+,21-,22-,23-/m0/s1
#inchikey ITRJWOMZKQRYTA
#Ion_Source LC-ESI
#Instrument qTof
#Compound_Source Isolated
#PI Sirenas
#Data_Collector Ed Esquenazi 
#Scan -1
#Precursor_MZ 403.212
#ExactMass 0.0
#Charge 1
#CAS_Number N/A
#Pubmed_ID N/A
#Smiles N/A
#INCHI_AUX N/A
#Library_Class 3
#SpectrumID CCMSLIB00000005352
#IonMode Positive
#UpdateWorkflowName UPDATE-SINGLE-ANNOTATED-BRONZE
#LibraryQualityString Bronze
#TaskID d19310cd93df49b68e9fcbec27720eb5
##Scan# 3
#SpectrumFile CortisoneAcetate.mgf
#LibraryName fda_library.mgf
#MQScore -1
#Organism fda_library
#TIC_Query 0
#RT_Query -1
#MZErrorPPM -1
#SharedPeaks 0
#MassDiff 0
#LibMZ -1
#SpecMZ 403.212
#SpecCharge 0
#internalFilename spec-00000.mgf

>collision 10
100.832855 17.2225
101.023026 555.229309
101.059448 48.640629
101.21154 16.00893
101.239441 12.50368
102.739204 14.78125
103.053726 12.50329
104.055641 22.600809
104.631325 3.504808
104.649246 11.48491
104.780838 15.125
104.869881 7.645833
104.981133 12.4
105.034538 135.486603
105.07016 4958.580078
105.116249 10.25
105.126167 17.033091
105.146019 14.38461
105.181709 13.3225
105.21244 11.375
105.233696 6.120193
105.247856 7.011364
105.280609 22.470619
105.33905 24.797791
105.376442 29.93902
105.387093 4.503676
105.440674 13.5747
106.528175 19.533091
106.56176 8.074405
106.572777 16.8064
106.647964 8.09375
106.698265 9.153846
106.789711 6.581731
107.047501 342.660004
107.08532 2680.676025
107.129715 5.5625
107.165932 15.51442
107.184891 19.71875
107.223564 5.555555
107.314255 2.5625
107.39476 11.63636
107.497353 8.613426
107.530464 19.66806
107.602142 11.6851
107.659889 12.13333
108.361244 9.582237
109.064339 901.681885
109.099518 361.166595
109.121033 10.96023
109.253433 15.07143
109.308548 14.77841
109.352203 12.125
109.457695 12.52446
109.743706 4.6875
110.755455 12.0
111.04628 195.821701
113.060875 51.047119
115.033913 112.548401
115.05423 270.660889
115.082329 4.051136
115.093529 7.502976
115.717651 15.5
116.060364 134.3293
116.933388 11.00368
117.069283 905.1427
117.099022 6.25
117.215981 19.53289
117.554871 18.62818
118.324135 8.020833
118.920471 10.625
119.046059 72.619377
119.085869 2501.741943
119.13485 14.50601
119.174789 3.005682
119.229393 72.428238
119.242882 16.223221
119.304077 3.0125
119.313667 15.26008
119.376152 10.64286
119.430153 58.418751
119.445396 8.5625
119.477875 13.25
119.491837 38.440281
119.787018 11.76471
120.38623 5.541667
120.394241 4.340278
120.405251 2.666667
120.442612 19.553881
120.488655 32.049999
120.502098 31.70439
120.636482 5.0625
120.679611 19.0625
120.882515 18.722219
121.064499 7383.422852
121.100632 1895.822998
121.146339 15.50833
121.161644 28.003679
121.181465 33.778851
121.19606 13.74395
121.204277 13.73558
121.223206 5.785714
121.237183 13.83333
121.275658 11.28533
121.286636 16.175501
121.337944 24.32008
121.395096 10.50694
121.408051 11.67361
121.433647 15.575
121.441536 20.06818
121.472023 9.0125
121.479698 16.01442
121.518044 13.06618
121.571739 6.5
121.621628 21.765329
121.64463 20.369881
121.686928 29.16964
121.74057 6.011364
121.943481 27.02083
122.343956 15.75521
122.463249 13.72917
123.042389 46.112259
123.079857 1235.418945
123.12635 4.5
123.164948 7.538462
123.220955 6.8125
123.365753 23.512501
123.383179 3.8125
123.43409 14.94485
123.468765 19.38068
123.497208 9.780092
123.528137 4.620193
123.651894 4.004807
123.953819 7.509615
125.059364 49.764751
125.161308 6.003676
125.638535 5.375
126.269081 29.6392
126.284836 3.080357
127.055496 107.327003
127.464561 13.8912
128.061188 102.181702
128.716263 10.06618
129.069519 214.423996
129.312973 41.053879
129.451431 4.5375
129.855469 5.0
130.076691 136.9543
130.391205 10.26078
130.599121 19.87145
131.04364 24.467159
131.085464 840.083313
131.450043 3.03125
132.260971 17.137501
132.433044 15.67361
133.064209 533.195496
133.10083 1151.488037
133.150406 7.75
133.383591 10.54464
133.613617 7.004167
133.962784 6.015625
134.59288 9.680555
135.080032 1759.228027
135.117645 1061.651001
135.167068 40.929878
135.189651 3.0625
135.235779 30.626169
135.440552 23.69758
135.54892 16.8375
135.919357 8.0
136.089554 49.207611
136.287491 4.673611
137.060455 28.625
137.095291 426.704193
137.146332 5.004807
137.2052 18.382351
137.359024 5.889423
138.38765 6.526786
138.49408 18.21121
139.074661 1094.217041
141.071045 232.236404
141.130814 7.0225
141.153549 9.9375
141.355774 37.661179
141.391296 11.18382
141.701797 21.002319
141.730713 9.075
142.004181 12.14286
142.07457 172.869904
142.104889 5.0625
143.043457 16.8064
143.085449 1317.94397
144.147217 2.5
144.241013 14.1875
144.255829 12.52083
144.295532 2.8125
144.448105 6.524457
144.550568 7.375
145.024429 12.89063
145.046631 14.375
145.065048 575.459473
145.100372 3879.225098
145.150833 16.391199
145.181137 42.20583
145.204086 17.02083
145.231049 14.15341
145.315414 44.000599
145.361038 18.1875
145.369415 4.004807
145.389359 34.61042
145.41333 14.04223
145.428513 22.04167
145.667374 24.265329
145.801758 12.04167
145.839584 12.06618
145.930435 14.98098
146.111694 97.699997
146.282318 9.8
146.546829 4.625
147.079941 1710.859985
147.115906 402.152313
147.191208 14.17457
147.212692 11.57143
147.31665 16.447371
147.406631 21.11574
147.546051 20.71121
147.605148 15.50625
147.665207 9.1125
147.698013 8.071428
147.723587 15.15434
148.088196 1635.399048
148.168106 8.909091
148.290741 7.7
148.316055 48.097012
149.056091 80.654213
149.146378 10.86012
149.164703 4.020833
150.068588 36.15308
150.105042 23.007811
151.075455 179.315506
151.109238 120.403801
151.194122 7.8125
151.365128 9.260417
152.077087 118.148903
152.949493 58.68605
153.053238 166.200302
153.088928 351.380615
153.142303 3.0
153.241348 10.0
154.074005 21.52471
154.20105 19.0625
155.084534 875.955872
155.140945 4.051136
155.328461 5.020833
155.363632 22.844999
155.610794 7.347222
156.470886 9.3025
156.544846 15.53634
157.062531 365.775085
157.100418 827.774475
157.473343 13.54735
157.717926 21.75568
158.054703 76.521721
158.116119 35.6875
158.155106 3.0
158.939209 18.5875
159.080795 969.775085
159.116821 634.075012
159.150116 28.642691
159.19809 3.006944
159.305893 15.45066
159.546585 17.612499
159.613464 13.8225
160.00235 3.508929
161.057861 54.000629
161.095917 2008.688965
161.127258 157.124496
161.166214 6.011364
161.22348 7.571429
161.255157 23.64286
161.299255 6.8375
161.492477 7.890625
161.740982 16.38007
162.153915 20.90909
162.173065 19.1875
162.213226 36.08717
162.240219 18.700001
162.297882 6.446429
162.357025 67.507393
162.382584 6.1875
162.406021 8.285714
162.426758 9.297794
162.458603 38.335861
162.480576 17.565161
162.557068 8.580358
162.587021 7.5
162.671783 37.321018
162.796722 11.9025
162.826645 4.517857
162.915436 4.5375
162.977615 10.53333
162.991821 59.62112
163.047867 4.520833
163.075455 594.673523
163.111267 17639.470703
163.16539 164.431793
163.183548 39.260422
163.20256 43.53389
163.222946 27.163309
163.244339 53.08176
163.259567 100.686996
163.2939 121.121002
163.331558 73.498619
163.347397 19.12019
163.387543 51.320591
163.426224 28.70853
163.449417 38.32391
163.515503 29.1096
163.533676 20.512501
163.542145 15.505
163.563721 18.740391
163.586624 15.56516
163.630478 38.28125
163.656082 44.982811
163.696777 23.95274
163.73349 32.142559
163.820999 17.22727
163.911331 12.26042
164.008987 49.297791
164.045303 13.98818
164.205704 20.884979
164.28096 6.8375
164.486664 9.018146
164.553802 18.83112
164.812546 8.524457
164.946579 10.01389
165.094452 95.050056
165.187912 20.199289
165.612885 5.660714
165.77449 34.05405
166.075424 88.06427
166.099182 60.451221
167.085587 175.326096
167.105362 74.943832
168.091904 188.000198
168.215271 11.0625
169.099518 646.875183
169.19046 11.77885
169.28508 39.140091
169.381851 12.4225
169.512177 8.75
169.567078 9.010417
169.698349 23.07122
169.857132 4.620193
170.065582 52.526211
170.220047 28.863331
170.319916 7.645833
171.039261 26.358141
171.079514 482.500092
171.116302 705.732788
171.172516 3.125
171.239731 5.460227
171.302383 7.898026
171.324783 5.5
171.376968 28.89352
171.598358 16.25625
171.652786 23.504471
171.707504 15.73684
171.750504 24.39674
172.081802 161.787598
172.241241 34.500832
172.615997 3.041667
173.058716 30.163309
173.095078 1068.854004
173.134384 150.911407
173.268158 28.0625
173.322311 9.765625
173.338531 5.008929
173.5186 10.1875
174.072388 13.0
174.271149 18.480261
175.076157 127.471298
175.111221 673.061218
175.290924 23.620041
175.364334 41.104649
175.549454 33.359558
175.594269 30.20455
176.795593 20.137501
177.091644 262.599609
177.124176 18.103319
177.392593 16.08654
177.560562 7.083333
178.074615 159.863998
178.11174 4.020833
179.082397 185.785004
179.1064 125.478203
179.129974 9.003289
179.521317 25.92938
180.093155 69.419594
181.081421 42.523941
181.100922 480.095306
181.339081 11.00216
181.483673 11.03125
181.530884 3.0
182.071854 83.553879
182.352417 9.780092
182.380585 5.013889
182.606171 10.02778
182.718018 3.166667
183.079178 128.440002
183.116531 652.638916
183.175446 4.5
183.293182 12.52273
183.495758 7.502155
183.768188 19.111839
184.056992 15.00893
184.093643 59.840279
184.283691 10.34615
184.296967 34.36161
184.324646 18.11141
184.378067 16.04464
184.751434 9.6225
185.095139 639.414917
185.130051 408.439301
185.162354 23.822371
185.172363 6.120193
185.210388 8.019397
185.432953 18.84783
185.528397 7.444853
185.802673 8.0125
185.973434 4.515625
186.082489 15.46314
186.319916 12.57122
186.828384 28.9
186.883057 6.1875
187.073471 296.895386
187.113495 368.452698
187.14241 165.476593
187.262695 13.58036
187.389999 33.032612
187.475632 6.661184
188.131699 11.9025
188.285019 26.618349
189.090942 751.210083
189.124878 120.849998
189.246231 7.444853
189.491165 21.58333
190.075119 48.75
190.128952 68.504044
190.737244 6.173611
190.978607 3.0625
191.080414 39.14204
191.108475 69.503723
191.138184 52.36607
191.296051 7.645833
191.507645 22.12348
191.724564 16.617649
192.093918 147.997192
193.099716 157.917007
193.239731 32.104172
193.961914 19.11364
194.000198 13.97059
194.107071 217.943298
194.15033 6.722222
194.180588 5.166667
194.847672 7.125
195.080246 167.726303
195.11586 639.000427
195.283813 12.375
195.457016 8.75
195.914902 16.11607
196.09198 96.376999
196.235397 7.633152
196.361893 27.94223
196.515289 11.0744
196.664505 16.611111
197.099243 444.286285
197.130478 784.082092
197.191742 5.555555
197.401016 28.20439
197.793076 11.0025
197.959702 28.216351
198.220108 9.890625
198.240158 5.4
199.074173 19.724541
199.110687 946.861694
199.146957 312.031586
199.215164 11.10417
199.627167 7.504167
199.799255 10.8
199.981232 5.640625
200.064865 6.015625
201.090469 295.187805
201.125473 216.034302
201.270828 9.240131
201.415466 21.662081
201.46553 12.04167
201.605377 25.52083
201.78093 12.03811
201.82547 13.98818
203.084702 53.471161
203.106689 52.345001
203.135941 236.344299
203.345612 12.55729
203.686111 14.98098
204.091995 66.256943
204.516663 8.004167
205.100845 272.350586
205.117935 98.801788
205.160294 2.5
205.379608 13.07853
205.443817 27.6875
206.420517 9.9375
206.48764 22.54464
206.667908 4.506945
206.79982 7.704167
207.111633 316.481995
207.754593 23.52404
207.804977 21.73703
208.083908 103.149597
208.129807 45.721149
208.175903 8.517858
208.417496 10.5625
209.058487 50.39185
209.095612 458.235413
209.106796 91.744186
209.13179 332.133392
209.3517 33.75806
209.923538 18.6875
209.991974 13.57122
211.0672 24.603571
211.108109 359.820709
211.147522 589.72113
211.51564 4.723214
211.62001 7.5625
212.082794 52.0947
212.662247 11.09375
213.087631 283.710785
213.12648 301.341095
213.16423 67.79657
213.456406 19.209999
213.545959 16.09524
213.728928 5.5375
214.691284 29.01515
215.105499 126.361397
215.142914 118.275002
215.323151 9.556818
217.10437 86.000397
217.119247 46.507351
217.42189 16.44022
218.107834 113.894699
219.113876 145.311996
219.133881 259.202087
219.906586 3.5
220.288528 16.980049
221.131104 672.131226
221.193039 7.082237
221.568939 7.460227
221.835068 24.06897
222.109787 14.6609
222.59903 10.36012
223.107956 250.461899
223.14537 257.055115
223.299637 22.88942
223.358658 5.1875
223.559387 19.012501
223.664093 8.0625
223.70961 9.8025
223.768997 22.71076
223.823654 7.051136
224.120392 168.658203
225.074982 15.34028
225.123978 610.441406
225.16246 362.780212
225.210617 4.004167
225.450821 20.501789
225.725159 3.25
225.962692 19.30179
225.978729 15.00833
226.094299 95.395447
226.261215 3.025
226.371124 6.015625
226.727173 3.508929
227.106979 290.663513
227.139954 400.860809
227.423782 6.785714
227.51886 6.5125
229.1185 88.88372
229.153839 65.010628
229.197906 46.760422
230.159332 68.411774
231.114273 180.129501
231.138123 57.000568
232.124161 83.666496
232.344574 5.625
232.484512 20.777929
232.596939 8.265625
233.130798 220.934402
233.232025 6.582237
233.840134 8.204166
233.987076 22.02948
235.150345 114.677696
235.736374 13.68371
236.10965 15.0625
236.147217 60.033329
236.159302 131.882904
236.796341 11.48098
237.099808 13.54006
237.126877 376.978912
237.164703 511.530914
237.252304 6.225
237.379929 4.340278
237.458862 5.640625
237.753799 13.32237
237.957794 36.038761
238.671829 38.30957
239.107468 136.171295
239.142227 728.550598
239.209717 8.102273
239.430359 2.53125
239.469543 4.340278
239.938461 18.30014
240.924805 29.265631
241.123367 308.788086
241.15686 1061.708984
241.399841 6.890625
241.707413 7.5225
241.820999 11.54735
242.246643 2.5
242.46521 10.53333
242.633163 4.0
243.135956 985.314575
243.17131 189.104095
243.461319 4.840278
243.814178 10.86012
243.938492 24.71607
244.10405 53.0
244.370712 7.051136
244.772751 10.72011
244.877991 14.7
244.98584 12.09191
245.15007 70.381378
245.181305 9.001785
245.754257 8.7025
246.103027 18.73472
246.463104 3.505682
247.101486 43.07095
247.147095 168.632797
247.161896 55.029411
247.205994 11.24107
248.119751 57.94083
248.284485 6.53125
249.123657 65.896744
249.158508 40.346981
249.239883 8.507813
249.294815 8.0
249.792419 18.884609
250.135147 165.960495
251.144241 328.793091
251.183044 44.090912
251.380966 12.32008
251.484467 10.22727
251.822403 29.510639
252.042633 14.76042
252.110565 65.322762
253.123993 29.969761
253.158096 383.956085
253.320709 7.502155
253.39859 12.14583
253.653046 4.017857
253.880569 8.909091
254.120148 12.46154
254.901215 9.105603
255.056763 3.506944
255.139175 96.734444
255.169388 312.529694
255.262344 22.28467
255.290161 11.50893
255.587036 12.64464
255.8797 14.5625
256.180939 360.923798
256.353363 9.520833
256.603638 16.54006
256.637085 8.0125
256.729431 27.971701
256.910858 10.54327
257.016357 10.01563
257.111725 47.104408
257.151001 219.653107
257.362274 30.24419
257.513153 13.78009
257.564484 15.24519
257.586121 18.9
258.162231 873.856384
258.23349 4.504807
258.41687 21.5
259.118561 98.605003
259.157928 38.454739
261.124451 52.143669
261.153503 34.25568
263.13208 66.109009
263.173584 33.39352
263.527069 4.225
264.146759 30.340719
265.117157 79.514587
265.156372 834.180725
265.229156 5.00329
265.410492 20.50391
265.467285 23.130211
265.8414 13.01308
265.960571 29.62162
267.138794 369.984711
267.173004 337.440887
267.38797 9.1125
267.586121 29.6112
267.745056 9.015625
268.001984 7.444853
268.587952 15.02446
269.151917 586.030029
269.18576 74.131149
269.419678 8.0625
271.177795 57.822369
272.140289 9.533089
272.169128 39.32283
273.150818 37.328949
276.150085 23.70439
277.12149 8.009615
277.155548 73.464684
277.445892 28.530411
277.793701 6.020833
277.944427 30.500959
278.133087 33.63158
278.1651 33.073372
279.169159 673.808594
279.935699 8.446428
280.391663 24.66033
281.512634 49.434319
282.100983 15.51442
282.19223 28.90625
282.305542 15.52273
282.539398 4.0
282.761658 16.038111
283.16629 571.004272
283.245422 2.580357
284.144714 43.735291
284.177734 640.32428
284.407806 4.1
284.496643 6.6
284.526581 43.085709
284.865662 18.18
285.143616 166.705093
287.340515 48.021259
287.428528 6.125
289.162384 107.5028
289.201782 7.520833
289.428528 40.773239
289.48764 7.502315
294.15741 34.11813
295.167938 51.000702
295.598541 23.58
297.182007 222.142593
297.2323 3.1125
297.492126 4.225
297.659576 18.09524
298.016815 18.25
298.852722 37.53125
299.162567 691.030823
299.215973 3.080357
299.40918 13.52083
299.63974 14.28571
300.071442 4.6875
301.14502 26.162161
301.177216 761.815918
301.254517 22.80179
301.479004 23.380211
301.653748 21.491739
307.171967 193.819
310.159637 35.82143
312.16922 9.889423
313.176147 92.739479
315.198334 36.393379
324.767365 19.623819
325.184448 197.710999
326.342773 9.723214
342.179169 46.154381
343.188782 355.864807
343.370575 8.535714
343.51886 17.029409
361.201508 7.0375
403.189697 5.704167
845.987183 6.5125
1077.959106 22.12899
1265.520996 17.501789
