>compound MLS002472924-01!9-(3-methyl-2-oxobutoxy)furo[3,2-g]chromen-7-one
>formula C16H14O5
>ionization [M+H]+
>parentmass 287.092
#inchi InChI=1S/C16H14O5/c1-9(2)12(17)8-20-16-14-11(5-6-19-14)7-10-3-4-13(18)21-15(10)16/h3-7,9H,8H2,1-2H3
#inchikey SVPDNNKLQWHTPC
#Ion_Source LC-ESI
#Instrument qTof
#Compound_Source NIH Natural Product Library
#PI Dorrestein
#Data_Collector VVP/LMS
#Scan -1
#Precursor_MZ 287.092
#ExactMass 286.084
#Charge 1
#CAS_Number N/A
#Pubmed_ID N/A
#Smiles CC(C)C(=O)COc1c2occc2cc3ccc(=O)oc13
#INCHI_AUX N/A
#Library_Class 1
#SpectrumID CCMSLIB00000080465
#IonMode Positive
#UpdateWorkflowName UPDATE-SINGLE-ANNOTATED-GOLD
#LibraryQualityString Gold
#TaskID b1d8e8f6646f4e71acdff9ca3d919d08
##Scan# 2042
#SpectrumFile p2-D09_GD9_01_18021.mzXML
#LibraryName NIH_Natural_Products_Library.mgf
#MQScore -1
#Organism NIH_Natural_Products_Library
#TIC_Query 0
#RT_Query -1
#MZErrorPPM -1
#SharedPeaks 0
#MassDiff 0
#LibMZ -1
#SpecMZ 287.092
#SpecCharge 0
#internalFilename spec-00000.mgf

>collision 10
95.455811 128.0
95.679565 140.0
96.675018 140.0
97.36705 120.0
97.695297 44.0
97.972878 72.0
98.250839 208.0
98.272545 240.0
98.501549 132.0
98.693245 196.0
98.792137 184.0
99.362373 176.0
100.708359 256.0
100.802254 212.0
101.034126 136.0
101.462753 160.0
101.551514 76.0
102.046989 368.0
102.089218 140.0
102.33873 172.0
102.717606 176.0
102.971924 52.0
103.052795 456.0
103.119408 176.0
103.200264 108.0
104.767067 136.0
105.843407 240.0
107.335197 204.0
107.533241 76.0
107.820312 120.0
108.316879 140.0
108.453636 160.0
108.770988 176.0
108.986969 156.0
109.275978 152.0
110.471382 196.0
110.584373 200.0
110.699524 212.0
111.187973 172.0
112.490845 132.0
113.203354 152.0
114.728905 176.0
115.055305 140.0
115.354385 204.0
115.457008 192.0
115.658127 188.0
115.865845 164.0
116.011566 160.0
116.468628 140.0
117.033836 228.0
117.333694 148.0
118.040672 340.0
118.314514 160.0
119.051811 152.0
120.050148 200.0
121.022957 132.0
121.158745 228.0
121.200371 104.0
121.955292 68.0
122.043228 192.0
122.080612 208.0
123.675713 208.0
124.644859 104.0
125.056274 148.0
125.265579 100.0
125.430473 108.0
125.593246 156.0
126.551949 132.0
126.679604 108.0
127.056221 184.0
128.410355 44.0
128.502838 152.0
128.965775 192.0
128.981598 180.0
129.035172 1072.0
129.202148 196.0
129.22583 44.0
130.039352 336.0
130.42775 28.0
130.643768 236.0
130.862244 80.0
131.048859 1416.0
131.356781 124.0
131.448044 92.0
131.562164 68.0
131.856812 220.0
132.051147 124.0
132.609787 156.0
132.875793 40.0
133.032684 300.0
133.061691 140.0
133.380997 68.0
133.564957 144.0
133.84111 140.0
135.140594 40.0
135.645447 212.0
135.824005 116.0
136.107132 164.0
136.148926 200.0
136.564941 184.0
136.851181 132.0
139.668808 160.0
140.139633 156.0
143.052643 212.0
144.159317 188.0
144.999298 140.0
145.028351 1568.0
145.402222 96.0
146.033615 308.0
146.07016 164.0
146.859924 168.0
146.94223 212.0
147.009201 180.0
147.016251 136.0
147.04538 7116.0
147.097595 192.0
147.205322 128.0
147.456573 56.0
147.679001 92.0
147.828995 56.0
148.045746 1016.0
148.393372 88.0
148.44429 68.0
148.673859 76.0
149.045944 172.0
149.163666 80.0
149.206696 60.0
149.55455 112.0
149.683578 92.0
149.997864 100.0
150.066116 168.0
150.590775 100.0
151.040512 160.0
151.775208 164.0
152.057312 132.0
152.08432 188.0
154.944824 100.0
154.999329 128.0
156.863312 68.0
156.883255 152.0
157.031052 1096.0
157.362259 48.0
157.667007 92.0
158.037079 132.0
158.93158 152.0
159.044403 904.0
159.303146 132.0
159.320724 80.0
160.049393 344.0
162.537323 104.0
163.805954 112.0
165.724564 192.0
166.027039 140.0
169.634171 144.0
170.241302 212.0
171.045578 252.0
171.404068 148.0
172.050888 128.0
172.212799 132.0
173.024277 2812.0
174.030701 976.0
174.095825 184.0
174.952988 140.0
175.000381 152.0
175.038269 2896.0
175.13205 44.0
175.292755 80.0
175.369171 136.0
175.458801 60.0
175.941589 128.0
176.052475 176.0
176.435608 60.0
177.02034 168.0
177.1978 40.0
177.224304 164.0
177.338257 40.0
177.529404 196.0
179.790359 120.0
180.33519 200.0
181.649887 268.0
184.088318 84.0
185.022064 676.0
185.077988 48.0
186.015152 248.0
186.238678 136.0
187.047379 172.0
194.948318 160.0
196.092117 56.0
197.057617 192.0
197.096741 224.0
199.036194 128.0
200.140091 152.0
201.017319 1396.0
202.027328 1628.0
202.305527 72.0
202.438599 100.0
202.741714 180.0
202.855087 104.0
202.89003 136.0
202.951782 164.0
203.034882 12288.0
203.229446 36.0
203.365662 180.0
203.466202 104.0
203.506744 40.0
203.621185 72.0
203.720596 48.0
203.746155 124.0
203.822876 32.0
203.94223 40.0
203.976349 176.0
203.999084 124.0
204.036804 1564.0
204.144089 88.0
204.340347 68.0
204.457016 72.0
204.70752 52.0
205.026962 180.0
205.377258 60.0
205.451431 88.0
205.645462 112.0
208.052795 176.0
209.530991 84.0
211.078033 188.0
212.242065 152.0
215.031158 200.0
216.856857 164.0
217.059143 132.0
218.610138 56.0
223.150558 192.0
225.173874 88.0
227.07074 120.0
240.277176 60.0
242.246414 132.0
243.071106 144.0
245.086014 176.0
249.656219 160.0
253.75795 108.0
280.508362 104.0
288.274841 140.0
293.093323 136.0
304.976959 116.0
305.056213 100.0
314.133728 80.0
314.169006 76.0
317.841461 104.0
326.705719 76.0
341.467133 116.0
372.924805 68.0
410.242798 64.0
437.42984 40.0
438.312744 48.0
493.818695 84.0
596.379272 44.0
885.79071 204.0
906.871765 132.0
942.132202 84.0
986.385925 176.0
991.311401 44.0
1003.738647 156.0
1038.506714 204.0
1045.097656 192.0
1049.63855 160.0
1058.264282 152.0
1077.136597 60.0
1083.894775 160.0
1094.976807 72.0
1127.438354 216.0
1149.855591 164.0
1165.219604 184.0
1174.532104 160.0
1177.992798 248.0
1180.501099 72.0
1202.677856 184.0
1208.607178 112.0
1212.963135 224.0
1216.709106 84.0
1218.945557 236.0
1224.44812 192.0
1233.462524 160.0
1237.884033 132.0
1243.49231 112.0
1265.8396 252.0
1268.87207 164.0
1275.24646 228.0
1277.891724 148.0
1288.000244 168.0
1289.186157 184.0
1297.582031 192.0
1298.320557 140.0
1304.444946 164.0
1306.724609 176.0
1310.684448 168.0
1312.169189 156.0
1332.484131 100.0
1346.944214 80.0
1362.855957 188.0
1380.199097 116.0
1389.323486 108.0
1402.320923 132.0
1402.537109 68.0
1404.826294 60.0
1408.259766 220.0
1425.324951 260.0
1428.572754 140.0
1434.099609 148.0
1444.269775 224.0
1444.82959 84.0
1450.796997 272.0
1451.608276 132.0
1452.321167 148.0
1455.918457 248.0
1467.690186 124.0
1471.008789 136.0
1477.420166 176.0
1477.741455 96.0
1484.11377 148.0
1488.433472 172.0
1491.612305 156.0
1492.029175 164.0
1496.095215 160.0
1500.91394 48.0
1503.706421 96.0
