>compound Nizatidine
>formula C12H21N5O2S2 
>ionization [M+H]+
>parentmass 332.121094
#inchi InChI=1S/C12H21N5O2S2/c1-13-11(6-17(18)19)14-4-5-20-8-10-9-21-12(15-10)7-16(2)3/h6,9,13-14H,4-5,7-8H2,1-3H3/b11-6+
#inchikey SGXXNSQHWDMGGP
#Ion_Source LC-ESI
#Instrument qTof
#Compound_Source Isolated
#PI Sirenas
#Data_Collector Ed Esquenazi 
#Scan -1
#Precursor_MZ 332.122
#ExactMass 0.0
#Charge 1
#CAS_Number N/A
#Pubmed_ID N/A
#Smiles N/A
#INCHI_AUX N/A
#Library_Class 3
#SpectrumID CCMSLIB00000006363
#IonMode Positive
#UpdateWorkflowName UPDATE-SINGLE-ANNOTATED-BRONZE
#LibraryQualityString Bronze
#TaskID d19310cd93df49b68e9fcbec27720eb5
##Scan# 2
#SpectrumFile Nizatidine.mgf
#LibraryName fda_library.mgf
#MQScore -1
#Organism fda_library
#TIC_Query 0
#RT_Query -1
#MZErrorPPM -1
#SharedPeaks 0
#MassDiff 0
#LibMZ -1
#SpecMZ 332.122
#SpecCharge 0
#internalFilename spec-00000.mgf

>collision 10
100.021919 205.024399
100.072067 8.223765
100.099739 17375.070312
100.142395 215.441299
100.156898 37.159821
100.16217 4.339286
100.171638 17.421881
100.186836 29.89361
100.195679 12.67222
100.209206 6.721154
100.219276 16.037701
100.229431 84.825897
100.24514 15.48316
100.261841 10.84546
100.267868 33.337299
100.275078 15.15432
100.307884 13.42222
100.329643 19.21814
100.340179 22.58423
100.346573 14.05235
100.356956 11.125
100.366959 10.68889
100.378082 22.92964
100.400787 14.32065
100.419678 17.33654
100.43441 33.849892
100.458313 11.50417
100.468513 15.1
100.479149 4.844298
100.500786 3.583333
100.509377 3.047619
100.534775 11.00093
100.542503 20.08877
100.567688 60.107571
100.574875 13.875
100.586472 10.46667
100.609413 80.556709
100.632851 31.656509
100.655998 17.037279
100.667099 20.505381
100.677841 4.694444
100.75843 8.897436
100.793068 6.668011
100.81752 7.001126
100.859444 5.76923
100.8797 13.4902
100.886192 3.893518
100.988762 4.120098
101.034798 196.579498
101.163635 15.11544
101.254631 15.73851
101.286407 5.265351
101.323837 19.65476
101.384193 6.363636
101.970024 13.03347
102.036598 302.853912
102.194977 3.002451
102.34626 6.070402
102.360336 9.722222
102.941917 4.734848
102.963486 12.00397
103.415993 7.111111
103.444595 21.63063
104.139671 3.335526
104.85347 3.857143
105.192245 8.45
105.40609 10.07843
109.076698 38.78241
109.637329 4.340909
110.005585 140.736496
110.068909 31.415091
110.378044 4.333333
110.525734 50.562939
111.013382 612.441223
111.062599 13.66774
111.138832 21.895321
111.374428 6.005208
111.440529 9.334401
111.554405 14.04891
111.922142 10.67045
112.020729 497.526001
112.09726 75.547173
112.353172 5.358974
113.028656 705.487488
113.251022 8.719017
113.370056 4.891667
113.540672 46.479839
113.669739 3.440476
113.987907 8.446428
114.435547 4.59375
115.085243 70.174171
116.01474 20.20192
116.071686 10.37255
116.094727 340.01001
116.213951 6.055555
116.442261 18.339911
116.48735 16.35041
116.532127 10.71196
117.046875 272.504395
117.066299 10.00417
117.649437 10.51923
125.626236 3.0
125.999847 393.836792
126.03775 30.01667
126.250916 5.703703
126.262604 4.013889
126.356995 10.50694
126.469894 5.068182
127.031784 102.677002
128.012115 5.720238
128.081406 63.291672
129.047913 269.634888
129.615585 23.782101
130.056076 104.401497
130.269531 6.037037
130.311417 10.05449
130.356842 17.67938
130.378601 49.909241
130.384201 22.320511
130.415192 24.519609
130.428375 11.00093
130.451462 74.434509
130.474335 33.5849
130.507843 13.33412
130.541382 52.449032
130.568375 13.1875
130.61319 8.625
130.66687 12.55556
130.6987 3.413462
130.706635 3.010417
130.782104 15.39394
130.838165 4.120098
130.927292 7.362179
131.043945 85.072647
131.063889 30720.320312
131.12825 18.287359
131.164566 7.656609
131.192383 12.39096
131.209869 61.175461
131.235367 5.963235
131.244553 63.9095
131.259567 23.831619
131.277451 41.614422
131.286713 71.323647
131.305481 70.109177
131.325333 43.91103
131.348541 20.710449
131.365097 41.396049
131.383957 31.436251
131.396454 67.918427
131.415192 18.18667
131.423019 52.87471
131.445587 51.08205
131.464508 50.01852
131.471909 17.424549
131.483734 25.782551
131.504822 15.63362
131.514496 24.444639
131.523773 24.2822
131.531631 33.54858
131.560944 29.22315
131.571442 8.593961
131.585861 24.74423
131.599854 15.06187
131.612854 22.4086
131.624832 31.289089
131.63623 31.479219
131.669708 18.54423
131.686722 10.67045
131.716995 47.672779
131.727661 17.89547
131.758759 15.42722
131.773331 22.54825
131.869064 7.041667
132.1185 37.487492
132.128677 37.563011
132.149368 20.77174
132.174423 13.44444
132.259491 9.771717
132.404785 33.866169
132.482758 8.727273
132.489822 10.55254
132.583008 12.70833
132.603073 13.71514
132.758972 8.768939
132.765976 7.370614
132.80925 5.814815
132.827911 22.80508
132.908295 14.66774
132.987549 11.44048
133.204056 7.703703
133.28038 4.388889
133.666428 2.678571
133.946106 6.083333
134.077591 25.57143
134.374115 6.708333
134.392288 27.61364
135.497696 6.761364
136.019958 56.088772
137.320679 7.757576
137.662643 21.303789
138.037033 330.004303
138.266388 7.015
138.295166 14.12297
138.307312 4.681667
138.372772 16.42424
138.663483 13.74802
139.032181 887.279114
139.200394 4.802778
139.250061 18.120371
139.262177 8.708333
139.311066 2.720238
139.35257 18.73333
139.367813 15.18801
139.412064 6.740942
139.439026 23.280609
139.567978 10.00595
139.588242 3.025
140.087219 10.96323
141.048508 295.593903
141.413513 14.33333
141.72261 12.32018
142.001862 7.714285
142.042252 301.842102
142.171249 5.016667
142.308334 12.90705
142.985168 330.82251
143.077316 2.666667
143.994431 303.536713
144.060791 31.744049
144.077118 41.037182
144.094376 12.3952
144.403671 7.757883
144.550018 7.366936
145.001556 108.616302
145.078918 25.555559
145.187164 8.041667
146.084381 38.475788
146.344727 4.483333
147.016052 9.858334
147.058075 1296.973022
147.111526 8.094444
147.140747 5.033333
147.214478 9.1875
147.417053 7.041667
148.093262 3.055556
151.029327 54.128201
152.143158 5.333333
152.430115 15.11935
152.735321 35.7617
153.00853 102.0923
153.04599 135.090897
153.100906 3.333333
153.209488 22.1847
153.273132 5.088768
153.29538 6.160088
153.318634 11.16944
153.360779 22.035049
153.425125 19.828899
153.579086 3.669118
153.604218 11.92747
153.636795 14.0
153.66658 2.741667
153.980438 11.82315
154.024216 150.922607
154.055832 11528.950195
154.107742 70.376778
154.124557 54.96674
154.155075 111.444901
154.170303 6.685185
154.187408 38.338169
154.209412 80.051109
154.228226 108.8731
154.24324 15.08333
154.258301 44.702942
154.271988 94.565788
154.29422 55.964039
154.339706 64.900002
154.355591 142.588303
154.361389 83.828987
154.382629 30.027781
154.405991 23.807171
154.418243 17.6586
154.430618 36.897301
154.462311 22.61207
154.475769 22.32523
154.488251 126.776299
154.511978 13.46759
154.538254 77.1978
154.550659 8.03592
154.570129 36.51894
154.581299 10.89851
154.589447 20.67083
154.642761 155.911194
154.667038 13.77554
154.679245 21.09399
154.695663 8.557099
154.784286 3.727941
154.829742 14.66667
154.918655 18.33532
155.063873 56300.78125
155.117081 68.509651
155.175903 119.763397
155.250061 28.793751
155.333984 68.409729
155.391159 64.410553
155.413971 88.939842
155.424896 21.931589
155.444092 55.331478
155.463348 89.085327
155.516052 38.246689
155.543076 85.378822
155.555664 3.025
155.5737 60.133961
155.594727 9.010715
155.629013 78.249008
155.693375 114.494904
155.718216 40.213089
155.769836 47.19928
155.785645 17.075001
155.823654 20.101789
155.902405 6.265351
155.974579 27.03138
156.033722 13.66667
156.194366 7.678572
156.238007 14.79487
156.259842 17.91176
156.307266 3.802778
156.532715 22.3318
156.563782 13.77632
156.604279 3.0
156.78363 12.54833
156.803436 2.669444
156.942612 6.010417
157.008255 9.671569
157.236664 23.273491
157.257004 10.10526
157.806992 7.782407
157.837585 5.0
157.971329 150.315994
158.006714 157.481598
158.037857 66.938492
158.288147 8.647059
158.336227 10.6681
158.577103 11.57576
159.044006 60.02087
159.73941 16.6
161.777985 7.078432
162.070084 22.001671
162.877228 2.666667
164.020279 5.444445
164.171799 9.960366
166.042038 19.309959
167.060745 80.32357
167.887848 10.11204
168.061981 32.786949
168.442871 7.291667
168.744156 10.19853
169.078049 99.959183
170.007935 102.352699
170.112946 7.360043
170.243378 2.408333
170.489761 2.35
170.730606 9.334091
171.017349 913.767822
171.099411 21.06707
171.180023 3.782408
171.446259 13.7219
171.545303 2.733333
171.750351 2.695513
172.025253 421.295898
172.088821 66.406532
172.165482 4.351191
172.26622 11.20427
172.512589 3.333333
173.074387 29.016649
173.482635 4.002778
174.03923 38.650211
176.046249 28.22963
176.761337 7.777778
178.041061 70.913254
180.061249 23.111111
181.280106 6.339743
182.077072 183.832703
183.012634 8.136261
184.025894 4.019737
184.091339 79.45742
185.01651 55.462219
185.838791 10.39701
185.906693 6.906746
186.003159 300.297394
186.025894 313.506287
186.070206 10.34028
186.101242 71.934692
186.14418 19.269791
186.203186 4.674242
186.269653 10.66975
186.300018 12.66848
186.447678 24.671301
186.640244 26.88619
186.768539 8.721847
187.009323 170.199402
187.035645 5642.851074
187.173172 20.94676
187.198715 25.146259
187.225235 10.67029
187.244263 20.69697
187.272873 14.82372
187.29277 41.132038
187.31163 4.823718
187.325363 5.09375
187.359634 12.70395
187.385117 17.294121
187.411789 24.49074
187.433289 47.223091
187.458557 19.33333
187.482239 9.694445
187.539474 25.33559
187.567261 27.65476
187.577576 8.017858
187.60643 18.724541
187.6539 10.0
187.673004 13.41588
187.752838 13.1875
187.812332 4.669445
187.868469 9.508333
188.373688 12.0625
189.086227 16.687929
190.04808 29.294941
196.064499 13.79167
197.013885 17.77688
197.875595 9.757576
198.028625 98.484444
198.067123 3.777778
198.299438 12.73851
198.402328 8.0
199.035751 1753.379028
199.076187 6.854167
199.087418 23.951571
199.114441 2.733333
199.206772 2.722222
199.229996 3.640152
199.264694 5.823718
199.350357 8.595239
199.368835 10.35088
199.397186 17.49436
199.491623 17.456301
199.555618 2.672619
199.657455 20.09399
200.049332 9.967105
200.136063 5.573412
206.073502 89.875
207.415146 5.333333
207.747726 18.09524
208.092682 79.056732
209.093353 37.817169
210.017303 26.91503
210.106308 149.070602
211.029648 22.78126
211.564957 2.666667
212.042694 366.769501
212.096451 8.186728
212.157028 2.361111
212.319595 5.692308
212.741882 5.414216
212.828751 13.53205
212.877594 5.160714
213.014404 245.612503
213.831451 7.136111
213.886826 27.273491
213.906387 15.56597
213.92363 6.932018
214.052277 120.114601
214.122955 10.12297
214.193878 15.54167
214.21991 11.37191
214.255341 3.727941
214.314774 3.408334
214.32814 19.284189
214.628204 22.23424
214.793823 16.22349
214.968842 8.338235
215.026321 34.685242
215.066849 6729.653809
215.126114 20.158899
215.145569 24.29167
215.157608 9.037499
215.172989 6.564103
215.186096 12.15776
215.213715 19.262819
215.24437 8.684211
215.268372 23.60178
215.285172 23.671301
215.296616 14.46667
215.32103 10.0163
215.35762 26.7859
215.384018 10.85417
215.411865 9.0
215.433273 17.6819
215.448578 5.041667
215.462021 13.19022
215.478378 30.76885
215.506104 26.679371
215.541061 27.57341
215.555832 5.382936
215.582336 31.694059
215.605957 16.372881
215.66954 27.111111
215.745071 5.510965
215.841949 8.753205
215.886978 7.564815
215.995499 13.23
216.237396 7.493421
216.258011 13.85732
216.312439 14.66774
216.698929 10.08333
216.772675 22.719999
217.038254 7.190476
217.147171 9.755555
217.182892 21.08025
217.578476 6.25
218.225128 12.34568
222.019928 6.779762
222.091797 24.81081
223.010559 14.52768
225.029968 32.041672
226.044601 216.169296
226.111908 5.025641
226.991531 11.40774
227.050766 127.623398
228.062454 71.336746
228.646835 4.483333
228.768982 13.92157
228.798141 10.06618
229.358078 3.933333
230.043182 54.564529
230.077896 185.550705
230.141983 2.333333
230.279221 4.711957
230.605408 9.185897
230.643631 4.44079
230.682495 7.375
230.700302 12.97283
230.728806 7.84375
230.746536 8.866667
230.884995 16.3631
230.904449 4.347222
230.93718 10.15278
230.962723 13.64103
230.987183 15.42178
231.003036 7.0
231.03212 10.25
231.05751 41.10294
231.085144 554.669312
231.129959 8.455882
231.177734 23.45759
231.197739 8.708333
231.252121 8.45
231.284332 3.926282
231.373245 5.466667
231.516434 4.531863
231.579742 5.333333
231.639114 11.11574
231.685837 17.02586
231.841248 16.934259
231.94075 17.9401
232.008759 30.40435
232.028625 44.762699
232.09375 12273.820312
232.160934 176.156799
232.197357 55.533581
232.227051 28.1117
232.248108 39.250919
232.273865 11.2937
232.287338 15.13599
232.311295 9.136111
232.340271 24.31373
232.369354 29.334999
232.416962 9.018518
232.436874 18.834379
232.467819 54.508339
232.496811 24.35289
232.549149 31.020639
232.590332 27.616421
232.619705 40.656361
232.719971 26.90667
232.733063 14.49342
232.761932 15.30833
232.808548 14.75595
232.825638 26.008329
232.862671 21.368839
232.931946 18.24324
233.18187 22.50189
233.287064 10.38294
233.550812 17.63117
234.578644 17.68889
234.847961 7.481667
234.932358 5.422101
234.992325 8.698232
235.796982 4.340278
235.861099 13.67302
236.574326 10.70833
238.009674 67.155022
238.256973 19.259609
238.362274 5.598684
239.042389 32.00174
239.634003 9.523809
240.069412 303.77771
240.440613 8.668859
240.77356 37.368481
241.020203 14.84005
241.524277 10.01389
241.537521 10.6886
241.598022 17.722219
241.676544 19.912411
241.709351 5.531863
241.733917 101.185699
241.795502 6.746795
241.808044 25.908331
241.868576 58.86734
241.930801 51.58112
241.973694 19.71212
242.08017 100.000801
242.122513 4.44079
242.201645 6.371212
242.252136 33.646149
242.489212 15.34347
242.511551 4.225
242.624817 5.04529
242.650467 10.00198
243.022217 85.991013
243.038177 35.912571
243.085739 15260.839844
243.153732 200.285706
243.187485 77.041412
243.216599 26.68326
243.236191 34.796619
243.268188 37.926239
243.295303 61.53981
243.309433 25.04167
243.324112 24.012819
243.336945 71.915497
243.353302 41.340351
243.373077 48.54924
243.394592 85.045883
243.411255 15.38889
243.433502 53.931499
243.47908 17.26515
243.499405 28.616301
243.556381 60.181782
243.574493 41.646301
243.611801 27.1387
243.665573 9.25
243.717438 20.6276
243.763519 23.815001
243.785843 7.102273
243.808945 27.162149
243.954391 12.04545
244.050201 43.028851
244.209702 27.14819
244.470947 11.14682
244.691055 14.55662
244.791519 16.48654
244.987808 8.962963
245.471695 14.54167
246.061646 4.727941
246.848099 3.025
249.176544 12.43333
249.98996 4.44079
251.041687 339.570709
251.195511 12.0732
251.260406 3.640152
251.339401 3.666667
251.569366 3.111111
251.664902 5.001984
251.864029 9.122475
252.438141 16.42424
253.069809 15.81718
254.081421 47.74094
254.379791 7.446428
255.082932 428.12381
255.620834 12.3373
256.016754 82.464996
256.496338 22.740801
256.638763 32.436131
256.662537 2.816667
256.692871 29.203199
256.75119 3.333333
256.823669 4.382936
256.996094 19.111111
257.052399 11.36232
257.38736 19.094481
257.990204 13.47179
258.024902 34.495548
258.039734 37.717041
258.073151 6471.168945
258.124329 32.457958
258.141083 15.69027
258.158081 20.34656
258.180206 16.4
258.239624 11.93333
258.253174 24.00227
258.271088 26.24
258.286804 26.793209
258.31723 21.33333
258.342041 52.384731
258.359558 14.02564
258.374512 9.444445
258.426239 2.683333
258.448975 35.365479
258.51062 8.763888
258.532715 28.69492
258.55365 30.29822
258.583374 40.89048
258.608032 8.541667
258.700348 2.367424
258.876129 10.67376
258.896576 12.81349
258.973541 3.852273
259.226624 2.367424
259.301056 14.7266
259.427155 15.77778
259.477905 19.22089
259.517944 13.38936
260.056213 2.337963
260.385345 27.11574
262.145813 2.708333
264.283112 4.761905
268.063354 88.950607
268.113403 4.115741
269.206512 5.166667
269.376312 10.38907
269.403259 10.89799
269.438324 25.41188
269.489166 32.77182
269.518677 19.75
269.554077 4.297619
269.572784 7.25
269.59259 30.034281
269.629547 17.502939
269.653961 18.0846
269.691345 9.180556
269.725403 3.041667
269.776855 21.013889
269.803497 22.960699
269.921753 6.740942
270.164642 27.559521
270.253021 17.0
270.333588 11.03716
270.355774 15.17086
270.532867 11.36149
270.575073 8.136111
270.772949 17.41667
270.990814 6.335318
271.065369 130.951599
271.105194 15809.549805
271.174408 190.859299
271.194427 30.630951
271.212585 54.107971
271.256592 37.22765
271.283112 122.240097
271.317749 83.795998
271.347839 38.140572
271.377716 14.89851
271.405945 60.765869
271.434235 10.64091
271.457428 32.999641
271.480377 60.951752
271.525085 81.552567
271.586731 21.357349
271.634003 10.70588
271.650696 19.346701
271.72345 34.41975
271.744354 9.506945
271.804993 48.954498
271.852875 45.035011
271.876404 84.94799
271.931793 32.067059
271.95343 30.55464
272.171844 3.333333
272.244965 12.07692
272.486664 23.6649
272.539276 13.06127
272.660583 9.1875
272.91272 9.240384
273.085175 9.222222
273.28656 6.688726
273.50824 12.44444
273.600525 11.66945
273.683136 4.5
273.828857 4.166667
274.044678 5.136111
275.061554 31.178249
275.083771 17.346149
275.286499 6.107143
281.118347 6.075
283.066742 21.22349
284.100372 232.382401
284.11673 150.032104
284.238281 19.858311
284.269073 9.552536
284.294556 10.06944
284.36676 6.728535
284.408569 13.70388
284.448608 17.45833
284.516754 62.20681
284.670593 5.416667
284.869904 4.844298
284.88681 6.001984
285.027405 11.34964
285.321075 17.355499
285.444855 16.95833
285.685303 5.005952
285.878479 12.52006
285.915405 15.12346
285.966675 22.611111
286.055878 13.36012
286.128815 9292.904297
286.207245 62.08012
286.226837 73.074219
286.244324 39.28772
286.284851 13.67083
286.308624 44.436989
286.329437 20.18224
286.36203 33.0327
286.386932 40.456169
286.423706 59.292759
286.486725 51.115849
286.526764 9.00463
286.560089 18.820379
286.586517 44.092239
286.622589 16.68214
286.644073 21.70948
286.65976 12.67361
286.675629 11.57407
286.703033 44.096931
286.774353 17.093439
286.791809 24.73468
286.850555 30.605499
286.96817 15.72185
287.027496 25.054819
287.061157 86.415337
287.098907 265.346497
287.1745 9.416667
287.409821 5.296568
287.829651 6.0
287.930267 13.34028
287.989044 4.002778
288.452942 16.905609
288.486328 6.375
288.598297 21.00231
289.781982 2.669444
291.340637 3.080128
293.699646 2.449074
295.774872 23.67424
296.100098 147.784103
296.181702 13.07843
297.105988 103.859802
298.077789 31.13485
298.114838 118.9533
299.618011 10.41667
300.907349 27.926439
301.05423 66.183777
301.079132 306.778809
301.112427 29.086809
302.108154 16.27
302.290039 7.666667
302.88916 11.4
303.119446 21.735729
308.656097 10.07843
310.308624 21.40056
312.832916 2.816667
312.887726 2.722222
314.111053 716.062317
314.1875 4.340909
314.206207 8.033334
314.267792 6.897436
314.402924 13.30876
314.501587 20.19524
314.615173 3.408334
314.742859 4.736111
328.517548 5.541667
328.889954 7.017857
329.664215 25.40152
329.710632 8.00463
329.776031 4.387821
329.976013 5.734848
330.087494 4.266667
330.106079 5.5
330.14032 15.10205
330.190887 8.748984
330.218506 35.49432
330.282898 18.79891
330.302856 16.947371
330.370178 16.5
330.432281 20.892611
330.494843 3.857143
330.513367 2.670455
330.533508 11.65534
330.586761 11.86111
330.735901 14.22222
331.006683 8.242816
331.153076 31.852011
331.476288 19.160021
331.823364 11.28409
331.969757 49.12196
332.03476 3.640152
332.077454 46.82925
332.121094 11113.589844
332.204895 82.951431
332.255981 82.325562
332.299072 29.337271
332.322601 28.12821
332.382477 20.51894
332.401917 64.654907
332.429657 31.60952
332.477692 46.088211
332.497192 14.09722
332.515106 16.08511
332.546173 18.17708
332.608215 34.683331
332.636169 41.834499
332.667572 10.0303
332.691925 17.96287
332.723145 50.69471
332.79953 51.384628
332.867096 75.264137
332.940155 9.509804
333.001892 32.048592
333.040833 42.14954
333.181824 26.70833
333.699615 16.156919
333.873932 11.12297
333.897369 9.776557
333.968597 11.03157
334.160004 11.67222
334.534851 17.716459
335.280304 7.921875
337.558411 6.25
337.916351 8.334302
507.038391 11.37778
507.327454 4.094697
718.317688 13.92754
742.971008 6.173611
925.692139 4.673077
1027.113159 9.704166
1059.759644 2.761364
1273.662354 8.888888
