>compound Cefdinir
>formula C14H13N5O5S2 
>ionization [M+H]+
>parentmass 396.041748
#inchi InChI=1S/C14H13N5O5S2/c1-2-5-3-25-12-8(11(21)19(12)9(5)13(22)23)17-10(20)7(18-24)6-4-26-14(15)16-6/h2,4,8,12,24H,1,3H2,(H2,15,16)(H,17,20)(H,22,23)/b18-7-/t8-,12-/m1/s1
#inchikey RTXOFQZKPXMALH
#Ion_Source LC-ESI
#Instrument qTof
#Compound_Source Isolated
#PI Sirenas
#Data_Collector Ed Esquenazi 
#Scan -1
#Precursor_MZ 396.043
#ExactMass 0.0
#Charge 1
#CAS_Number N/A
#Pubmed_ID N/A
#Smiles N/A
#INCHI_AUX N/A
#Library_Class 3
#SpectrumID CCMSLIB00000004545
#IonMode Positive
#UpdateWorkflowName UPDATE-SINGLE-ANNOTATED-BRONZE
#LibraryQualityString Bronze
#TaskID d19310cd93df49b68e9fcbec27720eb5
##Scan# 2
#SpectrumFile Cefdinir.mgf
#LibraryName fda_library.mgf
#MQScore -1
#Organism fda_library
#TIC_Query 0
#RT_Query -1
#MZErrorPPM -1
#SharedPeaks 0
#MassDiff 0
#LibMZ -1
#SpecMZ 396.043
#SpecCharge 0
#internalFilename spec-00000.mgf

>collision 10
100.007095 35.925968
100.990364 29.545401
101.014549 19.968349
102.000313 856.13208
104.04895 278.165985
106.029121 297.954315
106.062393 34.667591
107.060036 149.246399
108.043854 201.475494
108.620277 15.3936
109.030663 61.203621
111.002373 38.331848
111.026047 112.576698
111.986435 55.847038
112.040092 54.28183
113.016167 147.789093
114.001808 22.762501
119.059296 158.819702
120.043243 161.598404
120.067993 59.648201
121.009689 32.502399
121.075157 279.734711
123.000999 17.248301
123.024483 143.770996
124.020523 101.502098
124.049187 357.962585
125.004097 284.056213
125.034355 42.367031
125.366119 51.143589
125.39035 15.36231
125.414772 26.86973
125.430519 55.597759
126.012115 14581.429688
126.05497 756.427307
126.125496 18.549431
126.184509 40.12479
126.226128 42.37001
126.263641 27.50646
126.298843 18.722031
126.339638 18.84967
126.392746 34.987049
126.460648 30.992241
126.481155 16.375
126.490295 38.72982
126.516968 19.230551
126.663849 15.10294
126.680206 17.08831
126.994675 99.01825
127.980095 183.761398
128.051773 42.41238
132.045685 53.646839
135.055847 164.397293
135.997589 22.170731
136.021652 544.751099
137.006424 18.155199
137.031631 50.930199
137.042694 44.604172
138.000168 25.367821
138.036774 384.996613
138.992508 41.889271
139.023819 57.624939
140.014359 23.60593
140.02623 61.218048
140.045273 300.422302
141.006027 15.59365
142.006348 669.851013
142.968719 58.199291
143.035843 26.703791
144.021484 38.917992
144.985977 23.17226
146.027267 15.0464
147.055054 438.570496
148.009232 29.705021
148.037415 44.858009
149.069092 74.075508
150.052078 23.68679
151.031448 45.545681
151.133331 36.34269
151.172729 26.61968
151.980484 22.11594
152.016174 7670.71582
152.067963 85.80912
152.204941 16.875
152.219742 54.950001
152.242874 15.02619
152.250717 18.289961
152.41684 22.381241
152.455231 21.190189
152.491592 26.805811
152.702499 22.91667
152.998657 45.53376
153.036728 54.247238
153.046921 90.691307
153.411682 16.992201
154.004532 149.676605
154.031555 514.647888
154.971817 14.5952
155.063065 77.346169
157.003967 46.115879
157.982529 88.841949
158.008774 20.23387
159.099487 16.846939
160.062271 46.229599
161.033508 182.920898
163.005264 19.54167
163.028946 15.84503
163.04805 109.694099
164.016235 797.356384
165.06488 75.225731
166.030945 1105.337036
166.997101 19.86842
167.011185 18.86237
167.505692 15.05525
167.952255 32.32785
168.007874 16.26339
168.039871 113.156303
169.016403 30.12739
169.125763 14.67058
169.999893 99.758003
170.026596 5774.753906
170.08165 29.98629
170.100693 20.526171
170.113556 26.32601
170.191101 18.46826
170.234497 25.29554
170.279861 15.73339
170.304977 25.55994
170.559036 15.22743
171.404343 14.70417
171.997833 31.487989
172.979813 28.03104
173.036789 64.011703
175.047882 99.512268
175.986023 21.41716
176.030991 15.86574
177.025162 17.23554
178.005646 23.334591
178.369339 16.67927
179.001343 18.432541
179.026276 665.633972
179.986893 30.526369
180.015961 137.893097
181.041214 368.908813
181.143768 23.50808
181.163391 17.687099
181.983902 115.4627
182.0 186.659195
182.02562 1570.48999
182.080658 31.12846
182.149918 16.760441
182.174088 17.00738
182.364792 20.38702
182.439789 21.73632
182.521774 21.108259
182.586105 18.47578
182.968246 52.871288
183.033127 3819.447998
183.219284 27.4487
183.238403 18.3328
183.259827 28.44236
183.300995 30.633141
184.017899 91.084648
184.997131 25.106039
187.02803 360.19519
189.047531 24.741131
189.996216 19.546289
191.043091 130.694397
192.012207 66.199593
192.953522 18.39245
192.994751 21.97917
193.015884 67.029716
193.060486 127.135201
194.001465 47.880501
195.028915 37.497139
196.986237 16.537849
197.01152 90.589867
197.038971 84.263802
198.019623 251.171005
198.066406 18.10323
198.3246 19.69306
198.838593 17.04689
198.959732 34.348221
198.982895 97.250938
199.027954 1290.859985
199.050842 97.658524
199.401306 29.88851
199.993912 138.085602
200.084488 14.71201
201.97464 63.186279
203.088058 20.3155
206.979065 18.03878
207.023773 715.291626
207.040131 26.77854
207.910736 42.95216
208.00618 40.335659
208.086411 16.72529
208.348999 15.05388
208.782135 18.88283
208.965866 14.99092
209.012192 4166.11084
209.075821 62.123219
209.198257 26.76042
209.254257 22.67774
209.551712 22.476601
209.977066 52.527889
209.994858 58.509102
210.019775 1987.102051
210.162506 15.91927
210.208984 18.35985
210.307831 14.95
210.988403 120.487503
211.02829 2091.832031
211.090424 19.878851
211.123474 25.65004
211.173294 17.10079
211.20871 21.613529
211.662689 16.618191
212.062668 50.537258
213.001694 2617.353027
213.296951 29.286961
213.440659 14.80671
213.677017 17.90527
215.052368 15.92297
215.985962 21.000771
217.031113 26.78009
218.037506 39.648548
218.0737 17.31671
219.028183 25.001369
220.06488 24.833469
221.931519 27.841881
224.004868 22.148439
224.99437 63.894531
225.032333 25.77137
225.573929 15.17958
225.610413 17.684811
225.664627 28.6947
225.716003 15.59147
225.742981 20.02533
225.873322 15.68074
225.924652 14.89158
225.941513 20.80278
225.997055 228.744904
226.347717 27.658939
226.456299 18.577101
226.779083 22.606899
226.971115 43.84967
227.000977 23.79739
227.023193 11214.980469
227.209839 25.76873
227.247253 37.877769
227.266464 24.877279
227.2948 65.060516
227.367615 31.75366
227.386902 39.036259
227.422379 40.941231
227.487213 17.799999
227.514862 15.41837
227.541061 56.456108
227.610001 68.745453
227.669525 31.84881
227.691895 14.7975
227.713989 23.493891
227.743851 20.033739
227.81221 16.20417
227.836823 19.37989
229.051483 42.666759
230.033493 24.112249
230.063919 86.577423
230.993896 16.21813
231.015427 15.52326
231.044266 19.89043
232.047821 38.01638
234.062668 26.56308
234.119766 30.574909
235.014526 54.62751
235.970856 24.26825
235.992584 32.85804
237.029282 27.364691
240.993378 66.499687
241.714828 15.69028
241.891968 21.31712
242.300812 32.59351
243.000198 3257.39502
243.064896 52.226261
243.226837 14.76875
243.31102 15.65801
245.015213 174.455505
245.049393 61.31665
249.022766 23.1689
252.984497 839.213318
255.979401 37.52837
257.049805 43.33363
258.05191 147.797302
263.037109 39.106339
264.024475 19.508289
270.994965 1995.043945
271.111023 19.162689
271.171967 25.81159
271.268585 19.797529
271.7948 26.559139
274.009491 102.142799
274.071442 31.61875
275.039124 17.65308
276.033142 59.321152
277.018616 29.895981
287.064514 21.92614
288.034912 44.1675
289.025208 68.845779
289.048798 24.994341
291.037689 228.6772
302.004333 23.36529
302.06839 29.99666
303.049164 24.42964
309.04129 19.557871
316.031403 66.098152
317.013031 100.095901
319.030457 27.532049
322.062317 26.70097
324.060394 15.13333
334.046722 25.063709
335.028442 114.915298
345.050232 44.90786
350.041046 27.69771
363.020599 44.71722
368.042938 16.98992
378.033081 23.393379
379.042297 20.98616
396.003693 20.685631
396.041748 436.47229
