>compound MLS001148665-01!94-20-2
>formula C10H13ClN2O3S
>ionization [M+H]+
>parentmass 277.04081740809056
#inchi InChI=1S/C10H13ClN2O3S/c1-2-7-12-10(14)13-17(15,16)9-5-3-8(11)4-6-9/h3-6H,2,7H2,1H3,(H2,12,13,14)
#inchikey RKWGIWYCVPQPMF
#Ion_Source LC-ESI
#Instrument qTof
#Compound_Source NIH Pharmacologically Active Library
#PI Dorrestein
#Data_Collector VP/LMS
#Scan -1
#Precursor_MZ 277.043
#ExactMass 276.034
#Charge 1
#CAS_Number N/A
#Pubmed_ID N/A
#Smiles CCCNC(=O)NS(=O)(=O)c1ccc(Cl)cc1
#INCHI_AUX N/A
#Library_Class 1
#SpectrumID CCMSLIB00000085435
#IonMode Positive
#UpdateWorkflowName UPDATE-SINGLE-ANNOTATED-GOLD
#LibraryQualityString Gold
#TaskID d252d724072548979f1f6f1ced849daf
##Scan# 1839
#SpectrumFile p4-A09_GA9_01_18333.mzXML
#LibraryName Pharm_Active_Library.mgf
#MQScore -1
#Organism Pharm_Active_Library
#TIC_Query 0
#RT_Query -1
#MZErrorPPM -1
#SharedPeaks 0
#MassDiff 0
#LibMZ -1
#SpecMZ 277.043
#SpecCharge 0
#internalFilename spec-00000.mgf

>collision 10
46.494671 176.0
46.839027 176.0
47.304298 68.0
48.419594 76.0
48.823448 148.0
49.210827 200.0
49.23317 180.0
49.372921 180.0
49.573109 124.0
49.76387 148.0
49.983139 116.0
50.08873 216.0
50.183151 136.0
50.468361 180.0
50.77565 172.0
50.805435 144.0
50.836651 136.0
52.10891 196.0
52.702522 144.0
53.346004 192.0
53.484192 156.0
54.226173 144.0
54.725418 120.0
54.762444 144.0
55.12093 116.0
55.996201 120.0
56.328819 164.0
58.108284 184.0
58.931976 164.0
59.359028 180.0
59.477161 164.0
60.465126 176.0
60.744022 212.0
60.818504 172.0
60.952061 168.0
61.246094 232.0
61.409752 220.0
61.579876 136.0
61.928658 208.0
61.939621 168.0
62.437164 120.0
62.509529 176.0
62.541004 84.0
62.583508 200.0
62.629177 52.0
63.074142 180.0
63.366905 140.0
63.466606 208.0
63.87809 116.0
64.448837 124.0
64.768791 160.0
66.278343 164.0
67.600578 156.0
67.772507 168.0
67.834785 188.0
68.213982 176.0
70.519691 112.0
70.596596 132.0
70.60997 176.0
71.408295 180.0
72.918098 244.0
73.195389 216.0
73.282257 200.0
73.991035 176.0
74.186333 164.0
75.453392 148.0
75.723335 32.0
76.520378 184.0
77.052315 112.0
77.605377 112.0
78.380516 184.0
80.026016 140.0
80.838173 156.0
80.92588 76.0
81.327438 184.0
82.009117 156.0
82.178627 140.0
83.1903 164.0
83.828697 168.0
84.073059 156.0
84.603119 100.0
84.670868 184.0
85.129333 40.0
85.370064 112.0
86.758553 148.0
86.912491 204.0
87.002304 516.0
87.031281 216.0
87.745735 124.0
87.904274 192.0
88.005074 224.0
88.296577 132.0
88.997681 432.0
89.378983 148.0
90.309029 224.0
90.363892 128.0
90.909599 148.0
91.272415 40.0
91.738869 124.0
91.904793 216.0
93.03466 328.0
93.089653 212.0
93.279861 164.0
93.387535 228.0
93.899849 176.0
93.996307 108.0
94.034737 140.0
94.063858 172.0
94.765862 136.0
94.808495 224.0
95.049797 128.0
95.478256 80.0
95.653366 144.0
96.023575 208.0
96.183563 56.0
96.597816 144.0
96.681953 196.0
96.905174 180.0
97.358292 88.0
97.387749 156.0
97.517426 140.0
98.113861 56.0
98.510521 240.0
98.998398 256.0
99.016869 128.0
99.149605 220.0
99.931976 156.0
100.997253 116.0
101.55407 184.0
102.023941 160.0
103.30854 220.0
104.096962 132.0
105.075996 208.0
105.471077 192.0
105.658249 204.0
105.834267 88.0
105.965347 164.0
106.373451 264.0
106.558273 140.0
107.01281 148.0
107.045753 184.0
107.612785 168.0
107.866882 156.0
108.021561 120.0
108.050934 160.0
108.117149 104.0
109.649826 144.0
109.720695 132.0
110.367928 124.0
110.738335 164.0
110.79908 228.0
111.000954 9356.0
111.030632 136.0
111.054932 176.0
111.068558 116.0
111.275154 40.0
111.392754 56.0
111.426369 240.0
111.548256 84.0
111.647072 64.0
112.002975 620.0
112.280975 112.0
112.753876 40.0
112.933586 40.0
112.998802 3428.0
113.126144 128.0
113.236244 48.0
113.312508 56.0
113.533676 140.0
113.985107 536.0
114.001175 192.0
114.229599 136.0
114.685272 184.0
114.770546 88.0
114.953987 120.0
114.995346 1980.0
115.171753 60.0
115.449585 168.0
115.99411 184.0
116.49984 172.0
116.639511 56.0
116.964317 212.0
116.993355 632.0
117.022705 160.0
118.181473 112.0
118.224747 144.0
118.686142 104.0
118.749031 156.0
118.855331 116.0
119.241875 60.0
120.820572 236.0
121.100754 128.0
121.315491 72.0
121.752129 164.0
121.996017 132.0
122.403046 40.0
122.806335 244.0
123.603844 148.0
125.935913 148.0
125.96048 232.0
125.985054 112.0
126.011589 372.0
126.994781 772.0
127.866318 88.0
127.918083 164.0
128.004868 176.0
128.986542 120.0
129.010742 2408.0
129.618729 128.0
129.677643 184.0
130.013245 196.0
130.669983 108.0
130.708664 200.0
131.005554 908.0
131.698074 32.0
131.743759 68.0
132.006592 196.0
133.255798 68.0
134.841187 160.0
135.144104 184.0
135.676788 120.0
136.043335 204.0
136.612671 152.0
138.213165 60.0
138.937119 132.0
139.006653 9848.0
139.104599 76.0
139.131912 164.0
139.204697 60.0
139.30098 188.0
139.317429 108.0
139.479568 252.0
140.010361 540.0
140.303482 116.0
140.598312 52.0
140.7612 56.0
141.002716 2860.0
141.075439 80.0
141.09671 160.0
141.439728 80.0
141.726273 116.0
142.008759 308.0
143.115768 68.0
143.461227 80.0
145.082047 184.0
145.319473 188.0
145.757111 164.0
147.735886 160.0
149.025665 208.0
149.68483 120.0
149.974747 60.0
150.116135 40.0
150.332123 260.0
150.394257 144.0
150.814377 140.0
151.090698 120.0
153.401566 188.0
154.614304 152.0
157.346069 32.0
164.130936 120.0
164.792007 168.0
166.456909 156.0
166.950302 116.0
168.365112 128.0
169.684769 136.0
171.368927 152.0
171.801712 152.0
173.056183 172.0
173.189743 60.0
173.968521 120.0
173.986908 204.0
174.628281 92.0
174.867477 156.0
174.962189 5068.0
175.096527 100.0
175.288834 56.0
175.349442 180.0
175.713333 100.0
175.824158 76.0
175.96582 344.0
176.709366 68.0
176.84433 176.0
176.891968 104.0
176.958145 2456.0
176.995224 48.0
177.204468 104.0
177.286606 68.0
177.429733 36.0
177.954315 216.0
179.00267 200.0
179.191788 64.0
185.388199 88.0
190.963135 92.0
191.946274 48.0
191.986252 932.0
193.985001 168.0
195.163788 52.0
196.071259 56.0
202.32399 84.0
203.021011 148.0
204.048889 104.0
207.506332 32.0
217.973572 172.0
219.171158 84.0
220.106201 128.0
222.017822 128.0
229.089813 168.0
229.931061 112.0
238.0504 180.0
238.286911 52.0
247.94072 144.0
253.198822 168.0
254.781616 104.0
265.966797 132.0
274.941376 148.0
276.739594 108.0
277.190063 248.0
277.272919 108.0
279.225037 168.0
285.94986 172.0
307.214569 132.0
357.079773 56.0
369.009735 176.0
403.729218 56.0
475.729645 68.0
555.83783 92.0
600.274597 128.0
667.914673 96.0
706.874878 152.0
858.937988 168.0
922.413147 164.0
931.217041 164.0
938.58667 224.0
942.774231 128.0
950.416321 128.0
961.961975 172.0
963.709717 100.0
981.10614 176.0
981.89801 128.0
1002.328369 136.0
1014.50116 228.0
1048.332642 296.0
1054.541016 208.0
1058.733398 208.0
1062.940552 140.0
1068.990234 204.0
1114.169678 112.0
1116.955078 132.0
1119.450806 100.0
1121.522827 136.0
1122.322754 128.0
1125.685791 152.0
1126.473877 116.0
1130.518921 104.0
1134.624878 160.0
1135.731323 184.0
1135.932495 132.0
1137.355103 268.0
1171.994751 188.0
1172.703491 104.0
1179.672607 236.0
1184.476318 176.0
1188.027222 96.0
1189.214355 184.0
1191.377319 204.0
1198.429199 212.0
1204.174561 136.0
1211.029663 68.0
1212.477661 176.0
1215.147217 156.0
1216.2854 204.0
1218.535278 220.0
1220.592651 208.0
1220.805908 60.0
1221.197754 128.0
1222.81189 236.0
1225.973633 132.0
1228.002441 140.0
1228.267456 80.0
1229.488403 112.0
1232.707764 148.0
1245.816772 120.0
1249.732788 200.0
1251.358643 176.0
1251.598022 160.0
1252.844604 144.0
1261.185303 192.0
1263.037842 208.0
1268.851807 212.0
1271.618286 168.0
1272.711426 168.0
1279.544067 184.0
1289.123291 140.0
1289.52356 120.0
1291.918945 224.0
1293.063721 152.0
1302.758057 236.0
1304.748657 192.0
1311.976685 288.0
1312.798584 252.0
1322.892212 160.0
1328.64624 204.0
1331.832886 176.0
1339.149902 176.0
1348.63501 128.0
1349.176025 248.0
1351.34082 232.0
1356.467163 212.0
1366.616577 160.0
1367.300903 172.0
1368.868896 152.0
1369.848389 256.0
1370.879883 172.0
1373.453003 144.0
1376.338501 96.0
1380.151245 140.0
1386.035645 176.0
1387.154785 164.0
1391.049194 216.0
1391.383301 140.0
1392.541626 152.0
1399.278809 180.0
1400.947021 200.0
1406.039673 208.0
1407.256348 124.0
1409.086182 136.0
1414.582764 156.0
1415.466309 140.0
1420.352661 212.0
1421.823242 60.0
1423.917847 180.0
1428.435181 132.0
1431.422974 124.0
1431.912476 80.0
1446.273071 192.0
1450.181274 120.0
1458.948608 88.0
1459.906616 224.0
1460.157593 148.0
1461.7323 208.0
1461.89978 176.0
1462.485718 164.0
1468.222778 264.0
1468.626953 56.0
1470.31311 176.0
1471.129761 180.0
1480.16687 60.0
1480.384888 212.0
1491.021606 164.0
1493.035889 176.0
1496.129028 164.0
1500.76709 148.0
1501.399414 124.0
1503.196777 180.0
