>compound MLS001304087-01!Imidacloprid138261-41-3
>formula C9H10ClN5O2
>ionization [M+H]+
>parentmass 256.06
#inchi InChI=1S/C9H10ClN5O2/c10-8-2-1-7(5-12-8)6-14-4-3-11-9(14)13-15(16)17/h1-2,5H,3-4,6H2,(H,11,13)
#inchikey YWTYJOPNNQFBPC
#Ion_Source LC-ESI
#Instrument qTof
#Compound_Source NIH Pharmacologically Active Library
#PI Dorrestein
#Data_Collector VP/LMS
#Scan -1
#Precursor_MZ 256.06
#ExactMass 255.052
#Charge 1
#CAS_Number N/A
#Pubmed_ID N/A
#Smiles [O-][N+](=O)NC1=NCCN1Cc2ccc(Cl)nc2
#INCHI_AUX N/A
#Library_Class 1
#SpectrumID CCMSLIB00000085129
#IonMode Positive
#UpdateWorkflowName UPDATE-SINGLE-ANNOTATED-GOLD
#LibraryQualityString Gold
#TaskID d252d724072548979f1f6f1ced849daf
##Scan# 1467
#SpectrumFile p3-F03_GF3_01_18284.mzXML
#LibraryName Pharm_Active_Library.mgf
#MQScore -1
#Organism Pharm_Active_Library
#TIC_Query 0
#RT_Query -1
#MZErrorPPM -1
#SharedPeaks 0
#MassDiff 0
#LibMZ -1
#SpecMZ 256.06
#SpecCharge 0
#internalFilename spec-00000.mgf

>collision 10
45.118904 176.0
45.46854 152.0
45.539703 84.0
45.994843 192.0
47.33823 160.0
48.346001 52.0
49.235809 204.0
50.293114 188.0
50.733074 148.0
50.750088 152.0
50.897667 124.0
51.635902 236.0
51.949612 160.0
51.959656 56.0
52.20673 176.0
52.693966 152.0
53.981899 244.0
54.639057 184.0
54.86882 132.0
56.866787 120.0
57.646957 60.0
57.678699 136.0
60.575775 76.0
60.996326 180.0
62.589104 204.0
63.426476 204.0
64.357201 164.0
65.286667 148.0
65.429878 124.0
65.771652 104.0
68.364967 152.0
68.531288 256.0
68.697807 152.0
69.14727 188.0
73.164726 156.0
73.266914 104.0
74.182953 176.0
74.526215 168.0
74.607002 176.0
74.808289 104.0
76.190125 76.0
77.325356 180.0
78.005951 140.0
78.795502 56.0
80.306252 172.0
80.777832 220.0
82.09082 128.0
82.784782 228.0
83.116531 136.0
83.256317 164.0
83.641785 140.0
84.008072 164.0
84.812698 128.0
84.829193 144.0
84.8787 132.0
85.670891 224.0
85.76899 120.0
87.394653 188.0
88.293831 204.0
89.838379 188.0
89.981331 204.0
90.919228 192.0
91.538116 144.0
91.570496 76.0
92.400902 196.0
92.425774 148.0
92.557854 216.0
93.042961 168.0
93.664131 144.0
94.848686 184.0
95.188225 76.0
96.066048 152.0
96.896957 108.0
97.932251 124.0
98.57148 260.0
99.052948 220.0
99.296066 120.0
99.635521 212.0
100.264328 140.0
102.092224 208.0
102.188782 196.0
103.790581 184.0
104.048264 172.0
105.044647 188.0
105.110779 164.0
105.936813 184.0
106.049515 168.0
106.072067 252.0
107.060493 364.0
108.063622 196.0
108.961395 168.0
109.067383 152.0
109.983917 220.0
110.447807 156.0
110.640335 196.0
110.992287 152.0
111.613686 148.0
112.448174 144.0
112.678352 44.0
112.716385 84.0
112.777679 188.0
112.855896 120.0
113.001846 192.0
115.593636 112.0
116.46624 152.0
117.034012 136.0
117.348602 212.0
117.426231 48.0
117.639862 164.0
118.044189 152.0
119.05336 120.0
119.308029 240.0
119.582115 248.0
120.055679 448.0
120.572327 176.0
121.03611 92.0
121.073128 196.0
121.60392 168.0
122.692825 100.0
124.685074 48.0
126.007805 304.0
126.984146 184.0
127.013535 284.0
127.73053 196.0
127.935318 68.0
128.006195 236.0
128.022751 484.0
128.104218 52.0
129.011444 236.0
130.022537 384.0
130.212418 164.0
131.05928 572.0
131.352814 120.0
131.727188 48.0
131.832291 240.0
131.944305 100.0
132.052597 200.0
133.060516 744.0
133.078247 340.0
133.397797 220.0
133.655396 48.0
134.07251 384.0
134.60051 92.0
135.050827 156.0
135.081253 52.0
135.148346 152.0
136.584442 152.0
138.547745 152.0
139.005493 108.0
140.025803 152.0
140.475525 44.0
140.99263 176.0
141.020035 552.0
141.193588 108.0
142.134094 116.0
143.015823 152.0
145.047821 364.0
145.252457 160.0
146.016281 164.0
146.068893 640.0
146.941315 180.0
146.989578 164.0
147.06601 1256.0
147.502319 204.0
147.537872 68.0
147.917679 188.0
148.041168 184.0
148.067459 200.0
148.087662 180.0
149.30072 96.0
150.423996 192.0
150.966415 80.0
151.00856 208.0
151.074036 124.0
151.477966 148.0
152.825851 192.0
153.138504 160.0
156.0289 208.0
156.773163 100.0
157.063522 184.0
158.069382 280.0
158.099289 180.0
158.750656 188.0
159.073303 928.0
159.564224 200.0
160.062439 80.0
160.085098 436.0
160.168213 92.0
160.344589 96.0
160.942474 220.0
161.190033 48.0
164.104095 244.0
164.979828 132.0
165.401932 48.0
165.504333 180.0
165.916855 68.0
165.983521 156.0
166.014816 256.0
166.884811 148.0
167.034073 348.0
167.96907 140.0
168.011871 148.0
168.054199 172.0
168.521561 100.0
169.04155 216.0
169.800385 76.0
170.659958 140.0
171.10228 124.0
171.623383 164.0
172.147903 164.0
173.080032 1756.0
173.353897 56.0
174.08963 1376.0
174.727203 132.0
175.096039 5280.0
175.127335 180.0
176.039886 64.0
176.097046 556.0
176.131592 208.0
176.758926 56.0
177.117065 176.0
177.468826 64.0
178.99408 104.0
180.021729 268.0
181.029572 388.0
181.634705 52.0
181.736649 156.0
181.956741 132.0
182.026566 124.0
182.088333 132.0
183.019104 148.0
183.328598 56.0
184.529816 116.0
185.016815 116.0
185.764801 96.0
186.39743 148.0
188.402817 60.0
189.587631 100.0
189.672592 144.0
189.765808 40.0
191.086945 144.0
191.298859 80.0
191.678955 184.0
191.940826 156.0
193.042664 152.0
194.052002 152.0
195.044464 324.0
196.113342 104.0
198.130981 144.0
201.594818 192.0
206.076096 68.0
207.0439 176.0
208.029358 136.0
208.050598 304.0
208.428589 152.0
208.70166 200.0
208.980682 172.0
209.006577 180.0
209.057022 3888.0
209.22052 60.0
209.282898 80.0
209.305939 40.0
209.366409 160.0
209.481628 76.0
209.547897 96.0
210.061798 552.0
210.127426 120.0
210.228424 100.0
210.271713 88.0
210.459351 100.0
210.667313 96.0
210.901367 104.0
211.05423 1676.0
211.141357 72.0
211.503036 72.0
212.055237 348.0
212.262115 152.0
214.040512 56.0
226.128082 172.0
227.515976 100.0
230.909042 180.0
231.587036 68.0
243.395355 48.0
255.185577 144.0
268.052429 124.0
283.667633 152.0
321.948303 56.0
327.107971 124.0
332.330383 32.0
367.362579 112.0
377.402405 80.0
489.326721 68.0
522.541321 48.0
584.632996 92.0
909.091187 192.0
964.170349 164.0
1039.838135 200.0
1048.520874 48.0
1056.146362 120.0
1072.907349 172.0
1125.310547 128.0
1139.637817 56.0
1206.161377 48.0
1244.206421 124.0
1272.533203 116.0
1303.700073 124.0
1303.750366 204.0
1305.123413 128.0
1309.535034 160.0
1317.737305 140.0
1318.365967 88.0
1322.988159 192.0
1340.660767 224.0
1342.461426 188.0
1342.5271 76.0
1366.341064 168.0
1376.328369 136.0
1378.640625 172.0
1399.604858 176.0
1402.950195 100.0
1405.142944 160.0
1411.491943 196.0
1426.840698 132.0
1435.982666 44.0
1454.445312 164.0
1454.536377 196.0
1456.381592 184.0
1459.505127 144.0
1460.174316 176.0
1462.350464 236.0
1472.727905 136.0
1473.071655 120.0
1478.011719 168.0
1484.215454 216.0
1486.033325 156.0
1493.892944 204.0
1495.49353 212.0
1496.409668 180.0
