>compound Nizatidine
>formula C12H21N5O2S2 
>ionization [M+H]+
>parentmass 332.122
#inchi InChI=1S/C12H21N5O2S2/c1-13-11(6-17(18)19)14-4-5-20-8-10-9-21-12(15-10)7-16(2)3/h6,9,13-14H,4-5,7-8H2,1-3H3/b11-6+
#inchikey SGXXNSQHWDMGGP
#Ion_Source LC-ESI
#Instrument qTof
#Compound_Source Isolated
#PI Sirenas
#Data_Collector Ed Esquenazi 
#Scan -1
#Precursor_MZ 332.122
#ExactMass 0.0
#Charge 1
#CAS_Number N/A
#Pubmed_ID N/A
#Smiles N/A
#INCHI_AUX N/A
#Library_Class 3
#SpectrumID CCMSLIB00000006364
#IonMode Positive
#UpdateWorkflowName UPDATE-SINGLE-ANNOTATED-BRONZE
#LibraryQualityString Bronze
#TaskID d19310cd93df49b68e9fcbec27720eb5
##Scan# 3
#SpectrumFile Nizatidine.mgf
#LibraryName fda_library.mgf
#MQScore -1
#Organism fda_library
#TIC_Query 0
#RT_Query -1
#MZErrorPPM -1
#SharedPeaks 0
#MassDiff 0
#LibMZ -1
#SpecMZ 332.122
#SpecCharge 0
#internalFilename spec-00000.mgf

>collision 10
100.021889 1954.463013
100.064415 14.67736
100.083351 5.080128
100.09938 5566.856934
100.141991 17.09815
100.151527 21.042521
100.179672 7.410257
100.191002 19.629761
100.203674 11.15705
100.221054 11.09643
100.237411 28.40723
100.254707 19.964911
100.266365 12.15123
100.272263 3.1875
100.291107 23.222219
100.315147 6.520061
100.327736 9.704545
100.336052 3.678571
100.343239 17.597219
100.391785 19.34936
100.419945 11.7619
100.433647 6.386905
100.455833 4.761905
100.473282 9.897988
100.532997 14.46261
100.57605 15.34412
100.625488 3.010417
100.633018 1.777778
100.661896 9.408334
100.79174 9.787037
101.031631 13.34921
101.073059 85.416656
101.148514 10.26833
101.345833 6.98077
101.408646 13.10965
101.447258 4.674242
101.643585 5.840278
101.685669 6.033602
101.958336 131.309296
102.037361 221.367096
102.12114 2.666667
102.304039 22.67061
102.339218 10.02541
102.96682 207.907394
103.006653 3.115741
103.031548 306.22229
103.058899 4.341667
103.069031 2.339286
103.129074 6.449713
103.220871 9.408951
103.233879 3.933333
103.256699 5.966667
103.270439 9.411765
104.085167 5.0625
104.903191 5.003788
104.956421 16.76552
106.477303 1.777778
108.454041 2.893518
109.073586 73.456657
109.17157 4.8
109.50605 3.458333
109.648216 23.013189
110.005814 1022.098999
110.035912 9.148809
110.070801 136.127502
110.162506 2.016667
110.188065 10.33452
110.237282 4.008333
110.257759 13.34722
110.309013 13.41223
110.315994 11.09399
110.37085 21.90023
110.393181 4.347222
110.432869 4.0
110.451149 4.734848
110.482903 24.149599
110.525558 21.539101
110.549896 4.375
110.59745 8.678763
110.736519 9.88469
110.758469 6.342593
110.850334 7.466667
110.911583 9.673612
111.013794 13550.790039
111.059662 60.47855
111.090469 69.207367
111.106895 11.73986
111.114311 4.341667
111.127953 17.56061
111.163315 14.44509
111.171768 17.668011
111.195206 22.483021
111.21389 92.804619
111.22036 8.395833
111.251877 25.81492
111.260551 11.90705
111.273941 10.06833
111.289452 24.913561
111.300774 12.73016
111.336472 16.720461
111.382652 19.349211
111.403687 15.70076
111.422234 6.927469
111.435616 4.458333
111.451141 12.73986
111.520927 88.034523
111.54821 40.368752
111.575966 11.35556
111.620552 8.066667
111.638435 11.80167
111.732483 39.03072
111.816986 16.905609
111.903732 15.01389
111.946411 6.347222
111.966408 13.48333
112.086678 212.262299
112.102631 77.01889
112.120979 20.491671
112.134232 5.75
112.162582 9.426724
112.168877 12.0
112.305237 7.016304
112.381088 11.74405
112.415482 10.93889
112.426933 3.36218
112.442055 70.896156
112.452637 5.120098
112.464088 10.95076
112.490417 4.42803
112.511787 8.775641
112.592346 35.61343
112.626419 8.323276
112.655746 7.061869
112.747551 6.740942
112.766548 3.686404
112.862251 9.65661
112.969849 26.0646
112.98143 3.083333
113.000259 4.669445
113.029457 9154.106445
113.074486 61.64901
113.133308 24.91082
113.147316 23.69187
113.157944 20.56053
113.177895 18.46755
113.221397 12.66793
113.227928 6.630952
113.238327 25.231409
113.257256 21.592091
113.284584 8.755208
113.304588 18.88302
113.313965 10.07843
113.331841 10.38131
113.399162 9.686275
113.414001 7.007576
113.428802 3.760417
113.455421 19.348431
113.501228 10.6787
113.540474 10.33333
113.565857 27.306231
113.634224 13.02216
113.692017 10.88889
113.777351 5.408333
113.792625 4.59375
113.844254 2.083333
113.887383 1.666667
113.985252 1.6875
114.001518 30.116671
114.06424 49.69548
114.271423 3.666667
114.792656 9.020833
114.868393 5.041667
114.903534 12.04167
115.083809 40.515442
115.85878 13.74887
116.014084 154.901901
116.093628 55.610291
116.543678 7.716667
117.047096 144.316605
120.054008 38.04348
120.518036 4.148809
121.073921 74.21067
121.423294 12.13021
122.004814 26.17555
122.037598 1.675
122.079857 71.026573
122.214478 1.6875
123.013046 60.702179
124.021942 134.774399
124.482674 5.939394
124.688492 3.490385
125.027863 343.611298
125.238861 3.791667
125.404114 13.44444
125.723686 10.66848
126.000648 593.685974
126.034264 201.760696
126.411827 5.333333
126.585014 8.132247
126.965141 57.121632
127.0327 150.578293
127.04274 276.645691
127.056618 5.823718
127.071556 71.763817
127.28891 3.440476
127.593811 18.963091
128.014984 114.491203
128.079895 54.345982
128.977402 52.79491
129.046951 383.311188
129.116592 9.667857
129.978775 137.815506
130.15834 5.0625
130.166275 8.066667
130.190125 4.017857
130.265518 11.01754
130.293304 7.125
130.310287 13.60417
130.335022 16.79167
130.348785 29.369619
130.362198 114.892502
130.376724 14.33929
130.388412 5.939394
130.407532 35.66003
130.424393 17.0
130.435333 45.117081
130.454498 70.328918
130.464706 16.796
130.498917 53.991379
130.520874 13.91023
130.543503 19.08147
130.559433 10.33532
130.583359 8.737069
130.591324 4.001812
130.603973 16.525391
130.627106 12.6832
130.648026 15.08854
130.766403 10.79688
130.893631 13.10727
131.013046 21.01923
131.063965 29948.019531
131.12854 10.19032
131.140869 8.347826
131.170059 7.458333
131.204926 109.115799
131.219101 45.473511
131.232132 13.34347
131.238831 77.844597
131.259232 17.03285
131.269394 42.08617
131.28299 50.330009
131.300125 31.121281
131.313004 16.298759
131.319916 17.94816
131.328735 18.035919
131.341568 24.40378
131.381195 59.585999
131.407578 22.33745
131.420242 27.398689
131.460449 46.724998
131.487228 72.425774
131.522308 26.53175
131.534012 11.56481
131.55423 34.44569
131.563156 8.130208
131.573807 42.070049
131.597321 21.55212
131.633926 13.25641
131.653763 28.686729
131.674911 8.333333
131.68689 8.462607
131.715179 22.09091
131.750763 16.356779
131.772446 28.198469
131.85495 29.974171
131.879593 30.45635
131.930695 13.90645
132.006104 7.109127
132.017914 20.69467
132.066895 309.326508
132.095413 12.70833
132.105194 5.053571
132.122452 13.74921
132.186661 12.34259
132.327866 22.15126
132.338715 14.23
132.494598 23.027241
132.589783 10.24008
132.67482 15.68
132.843155 8.666667
133.051727 59.02021
133.180237 6.564103
133.321701 32.35672
133.726624 6.669872
134.158813 6.375
134.814987 8.853395
135.092148 36.327049
135.632202 5.541667
136.018295 68.528664
136.02565 7.028153
137.014069 38.46925
137.03009 25.96007
137.172241 4.028846
138.037018 1342.901978
138.078537 2.375
138.086456 9.022163
138.10347 5.260417
138.164139 9.710784
138.176407 26.143921
138.200958 14.74268
138.281616 28.473301
138.3246 57.160912
138.340134 17.480021
138.413696 12.45004
138.479202 10.0121
138.487381 8.388514
138.520538 12.47115
138.548798 16.043011
138.581558 4.340909
138.631226 3.185606
138.663483 14.3649
138.718796 4.416667
138.996796 22.70709
139.032242 9463.769531
139.082642 78.317291
139.111496 11.04435
139.119171 16.587299
139.187302 63.014561
139.217133 3.345238
139.235748 19.37587
139.254013 8.20119
139.262878 14.17083
139.291702 15.89528
139.334259 24.851851
139.348557 2.722222
139.360779 11.75754
139.373184 20.33532
139.389191 7.615
139.424561 17.864799
139.466904 9.827381
139.516876 10.50347
139.54155 15.91919
139.55809 13.38085
139.611313 28.338619
139.636078 7.408951
139.740433 11.02083
139.788223 15.43539
139.800613 7.605556
139.816986 10.10227
140.268997 32.61787
140.302841 13.075
140.558441 12.54667
140.77713 3.686404
140.981094 12.47738
141.048996 290.391205
141.435059 17.037359
141.512817 9.753472
142.076202 11.67432
142.159149 8.667592
142.380432 11.29412
142.416443 16.334089
142.428421 12.70691
142.536865 3.333333
142.985916 2866.4729
143.030182 40.772289
143.073151 8.136261
143.171661 26.073191
143.210724 5.939394
143.252151 3.666667
143.391357 14.48302
143.472076 13.88982
143.48143 6.44079
143.489578 8.066667
143.502869 11.3344
143.627213 10.73016
144.048248 2.0
144.086777 10.66667
144.223953 4.70671
144.282455 9.338542
144.349579 13.96154
144.608276 3.823718
144.642059 2.671296
144.66716 10.34295
144.97699 12.40333
145.000839 153.823593
145.074005 6.880952
145.081528 29.375
145.207428 13.36004
146.223709 4.335318
147.058563 177.179504
147.079758 6.375
147.104248 6.666667
147.294189 7.388514
147.349091 4.388158
148.050415 5.700758
149.09375 51.80278
151.031174 84.700737
152.038345 92.888153
152.060959 7.338889
152.108154 2.0
152.920563 21.77519
153.010193 33.39286
153.047607 194.378296
153.078445 4.185606
153.105209 12.075
153.154709 8.833333
153.199783 3.041667
153.261322 29.885969
153.281067 13.08877
153.31221 29.27593
153.371994 6.88587
153.409515 9.852273
153.46257 3.066667
153.475632 5.088768
153.566147 6.012097
153.626511 15.04891
153.691193 9.376773
153.793198 15.15199
153.827087 3.958333
153.851593 4.833333
153.874786 11.215
154.055771 8223.735352
154.106888 16.752661
154.126541 32.447651
154.156342 11.1829
154.174194 44.56218
154.19194 13.66667
154.231033 10.73986
154.277924 19.18561
154.286652 20.69792
154.299911 12.3344
154.336853 12.59868
154.347458 6.775537
154.386398 31.005951
154.399734 8.45
154.425262 4.0
154.443863 9.760057
154.472809 12.08232
154.481522 9.737069
154.505264 18.408331
154.529633 15.00417
154.542023 15.72003
154.55072 6.535
154.563614 5.741667
154.62178 40.820938
154.643661 2.833333
154.702072 7.710784
154.71785 5.148148
154.733948 9.897988
154.769562 12.48302
154.851379 6.25
154.927185 2.336539
154.982849 26.375179
155.035431 13.00089
155.160355 10.34722
155.347473 6.672222
155.377823 14.83333
155.698883 6.025641
155.942078 11.00708
155.990936 12.52632
156.042099 7.969086
156.085464 6.102564
156.559586 10.18561
157.97258 23.46944
158.008118 172.738693
158.428177 4.69697
159.173447 16.33399
160.054504 71.448227
160.303452 4.010417
160.409363 3.666667
161.031723 8.306159
162.101501 30.155069
163.032578 40.68816
164.040466 31.875
165.184937 5.680555
166.054031 39.56612
166.983368 24.94669
167.059082 48.6329
167.991547 10.11574
168.059845 188.945099
168.173248 9.053572
168.238846 20.555559
168.581253 24.674999
168.655029 13.00085
169.078552 170.825302
169.301712 7.789216
169.520889 6.633772
170.006744 41.169312
170.342468 6.306818
171.005005 997.656372
171.017334 97.339531
171.08078 2.354167
171.108093 8.523648
171.30632 36.55201
171.64621 22.35
172.021088 35.830509
172.500656 11.76961
174.098114 18.91848
178.04425 64.74173
179.025406 66.836807
179.062622 38.910179
179.504379 5.573412
180.058807 197.658905
181.01532 12.2549
181.077682 17.14683
181.41832 8.291667
182.07428 16.9848
182.233002 1.777778
184.016785 22.712641
184.985199 13.83681
185.022278 201.052597
185.401779 4.668334
185.8862 10.37255
186.025833 413.793304
186.084534 2.00463
186.127319 32.334999
186.659195 8.712037
187.034485 260.044586
187.430267 7.347222
187.56282 23.88707
187.750534 3.080128
190.05159 65.265327
191.149185 5.939394
191.383743 7.564815
192.995529 6.004902
194.06575 40.76498
195.084579 23.382721
198.015396 8.789216
199.0345 522.491028
199.109177 2.777778
199.235031 17.87879
199.319717 11.76136
199.41954 13.81349
199.686356 5.266667
201.441742 19.028009
206.079285 16.85417
208.089096 44.658001
210.831863 14.20455
211.01741 44.778439
211.035889 34.646469
212.03746 49.773331
212.049911 3.041667
212.066208 5.002451
214.046478 14.95047
216.057663 79.333504
222.085068 38.43261
224.011047 46.899609
226.049515 10.0119
228.061279 49.785488
230.076157 103.5867
240.058334 52.046299
243.095139 19.387819
248.555298 11.28167
251.281479 6.333333
255.064636 57.366871
255.131592 1.6875
258.074005 18.000601
269.606689 10.5328
269.960968 6.00641
270.195465 8.647059
271.104431 61.138531
301.727783 12.87076
403.101318 6.037281
442.163513 5.573412
443.96521 25.387251
447.809326 4.482143
508.5849 4.025
551.324036 6.025
623.16864 8.789634
678.837646 13.59559
686.408142 14.11204
689.497375 19.02083
954.838867 8.987319
1208.428223 3.675
1285.11499 58.575649
1312.931641 22.21401
1610.112061 4.35
1631.68103 3.125
