>compound MLS002207182-01!2'-Hydroxy-4',6'-dimethoxyacetophenone90-24-4
>formula C10H12O4
>ionization [M+H]+
>parentmass 197.08083531609054
#inchi InChI=1S/C10H12O4/c1-6(11)10-8(12)4-7(13-2)5-9(10)14-3/h4-5,12H,1-3H3
#inchikey FBUBVLUPUDBFME
#Ion_Source LC-ESI
#Instrument qTof
#Compound_Source NIH Pharmacologically Active Library
#PI Dorrestein
#Data_Collector VP/LMS
#Scan -1
#Precursor_MZ 197.084
#ExactMass 196.074
#Charge 1
#CAS_Number N/A
#Pubmed_ID N/A
#Smiles COc1cc(O)c(C(=O)C)c(OC)c1
#INCHI_AUX N/A
#Library_Class 3
#SpectrumID CCMSLIB00000085613
#IonMode Positive
#UpdateWorkflowName UPDATE-SINGLE-ANNOTATED-BRONZE
#LibraryQualityString Bronze
#TaskID d252d724072548979f1f6f1ced849daf
##Scan# 2058
#SpectrumFile p4-D05_GD5_01_18365.mzXML
#LibraryName Pharm_Active_Library.mgf
#MQScore -1
#Organism Pharm_Active_Library
#TIC_Query 0
#RT_Query -1
#MZErrorPPM -1
#SharedPeaks 0
#MassDiff 0
#LibMZ -1
#SpecMZ 197.084
#SpecCharge 0
#internalFilename spec-00000.mgf

>collision 10
44.897129 200.0
45.252571 124.0
45.940678 148.0
46.012203 136.0
46.746853 132.0
46.923927 56.0
47.098602 212.0
47.800552 72.0
48.059601 204.0
48.293068 176.0
48.362247 172.0
48.461956 140.0
48.989895 168.0
49.615982 188.0
50.342022 160.0
50.580963 144.0
50.714939 248.0
50.786419 172.0
51.188618 240.0
52.092537 156.0
52.60519 120.0
52.665836 160.0
52.976841 108.0
53.699265 124.0
53.967964 192.0
54.20216 136.0
54.219746 136.0
54.783974 228.0
55.056847 152.0
55.302273 124.0
55.782867 96.0
55.875069 104.0
56.0597 104.0
56.108891 208.0
56.79678 184.0
56.835785 184.0
57.194969 196.0
58.78484 176.0
58.95282 176.0
59.518063 176.0
59.697849 212.0
59.790154 188.0
59.945694 68.0
60.095264 136.0
60.228027 128.0
60.486252 144.0
60.627197 144.0
61.203506 152.0
61.548103 216.0
62.314018 184.0
62.545193 56.0
62.963009 180.0
63.170067 132.0
63.195377 220.0
63.367958 140.0
63.990551 172.0
64.035141 192.0
64.240761 164.0
64.688202 200.0
64.962227 136.0
65.757103 176.0
67.719574 208.0
67.762169 100.0
67.844109 120.0
67.953995 112.0
68.177307 180.0
68.264435 220.0
68.471794 68.0
68.62175 188.0
69.070938 112.0
69.833931 104.0
70.778488 148.0
71.055046 176.0
71.537361 260.0
72.329056 212.0
72.549271 184.0
72.659508 224.0
73.925507 88.0
74.438065 184.0
74.945496 148.0
75.042015 136.0
75.238693 208.0
75.383781 168.0
75.703812 40.0
75.854546 148.0
75.870148 164.0
75.911758 160.0
76.13736 208.0
76.21553 120.0
76.676682 172.0
76.70108 68.0
77.18293 112.0
77.270386 140.0
77.905022 88.0
78.334251 132.0
80.344582 168.0
80.616837 84.0
80.780472 124.0
81.093826 180.0
81.472443 172.0
81.797935 160.0
82.037521 176.0
82.203453 184.0
82.56295 220.0
82.613594 156.0
82.769241 60.0
82.979416 104.0
83.37513 212.0
83.416931 240.0
83.866539 180.0
84.202248 128.0
84.791359 108.0
85.163803 208.0
85.406425 168.0
85.516823 140.0
85.653076 44.0
85.71756 204.0
85.811562 132.0
86.380363 92.0
86.706238 104.0
86.8657 172.0
87.097725 224.0
87.60183 224.0
88.000931 124.0
88.047615 156.0
89.040222 472.0
89.467041 212.0
89.519768 136.0
90.045082 584.0
90.272705 196.0
91.054672 1408.0
91.591759 172.0
91.946388 124.0
91.984566 164.0
92.024445 352.0
92.055 112.0
92.057846 188.0
92.101044 80.0
92.29406 144.0
93.070862 184.0
94.040459 176.0
94.142647 160.0
94.448013 228.0
94.951591 160.0
95.051643 984.0
95.126221 148.0
95.155342 64.0
95.742577 116.0
95.884796 52.0
96.019318 272.0
96.060463 212.0
96.140274 180.0
96.315987 48.0
96.648338 188.0
97.030258 184.0
97.420799 144.0
97.855431 212.0
98.032707 164.0
98.777039 160.0
99.038322 212.0
100.053047 152.0
100.371834 172.0
100.721092 112.0
100.799004 148.0
101.026932 172.0
101.102966 144.0
101.271141 136.0
101.391357 176.0
102.047173 208.0
102.694168 208.0
103.054947 1540.0
103.34465 52.0
103.514679 60.0
103.61393 160.0
103.674713 160.0
103.705116 152.0
104.054123 184.0
104.790268 84.0
105.032143 220.0
105.074379 288.0
105.171616 216.0
105.379913 96.0
106.042351 376.0
106.073677 164.0
106.449127 56.0
106.995163 212.0
107.047775 944.0
107.070183 220.0
107.167 124.0
108.021271 764.0
108.056679 1456.0
108.157806 144.0
108.454468 196.0
109.028809 372.0
109.065079 692.0
109.415199 176.0
109.468315 136.0
109.81218 60.0
109.937355 124.0
110.02626 108.0
110.123169 168.0
110.449234 188.0
110.541283 32.0
111.008423 120.0
111.044243 352.0
111.079735 116.0
111.329498 216.0
112.04982 352.0
112.40519 236.0
112.546616 140.0
113.560287 140.0
113.691826 188.0
115.055832 156.0
117.030838 456.0
117.216087 188.0
118.041077 2100.0
118.49955 132.0
118.91156 168.0
118.963654 160.0
119.046478 1192.0
119.894585 128.0
120.016655 68.0
120.049248 152.0
120.263168 124.0
120.326469 100.0
120.632317 172.0
120.901344 72.0
120.951683 156.0
121.028496 1892.0
121.063454 828.0
122.03241 368.0
122.069618 180.0
123.042557 504.0
123.080956 796.0
124.018669 188.0
124.054245 176.0
124.081642 172.0
124.49704 192.0
124.82148 76.0
125.015915 176.0
125.056412 232.0
125.228737 144.0
126.022896 120.0
126.065346 56.0
126.857666 156.0
126.918205 208.0
127.515335 124.0
128.833511 132.0
129.043701 140.0
130.069931 160.0
130.540222 172.0
130.874725 48.0
131.043259 180.0
131.059219 120.0
131.396652 108.0
131.931046 192.0
132.064026 236.0
132.523819 56.0
132.687622 204.0
133.02681 320.0
133.064423 2432.0
133.152344 48.0
133.225845 52.0
133.324661 92.0
133.430389 76.0
133.554565 60.0
133.57756 56.0
133.702881 164.0
134.040131 140.0
134.062729 188.0
134.688614 136.0
134.734818 64.0
134.991379 72.0
135.021927 172.0
135.043915 768.0
135.545502 52.0
135.948105 68.0
135.971313 132.0
136.050888 796.0
136.152405 48.0
136.184921 104.0
136.426575 48.0
137.014816 172.0
137.056641 1004.0
137.080597 44.0
137.519043 40.0
137.659515 216.0
137.763443 60.0
138.492905 156.0
138.948807 180.0
138.96524 108.0
139.04277 200.0
139.947693 128.0
140.047653 560.0
140.416641 180.0
140.659668 196.0
140.952515 132.0
141.054642 208.0
142.314484 148.0
142.380981 216.0
144.681976 96.0
144.727463 60.0
145.026917 144.0
145.547501 200.0
146.034454 204.0
146.085861 152.0
147.042923 792.0
147.076233 152.0
148.051651 572.0
148.249222 184.0
148.443161 132.0
148.59111 64.0
149.022324 3804.0
149.062561 196.0
149.159378 44.0
149.346603 104.0
149.419586 92.0
149.935791 144.0
150.027039 288.0
150.068497 312.0
150.365036 32.0
150.55545 224.0
150.731339 92.0
150.86087 184.0
150.995361 176.0
151.031113 156.0
151.07547 3232.0
151.105438 400.0
151.215546 52.0
151.323257 56.0
151.362442 108.0
151.629456 72.0
152.007919 148.0
152.014862 176.0
152.08046 196.0
152.191208 88.0
152.304184 208.0
152.458969 132.0
152.972107 216.0
153.029633 152.0
153.057922 436.0
153.086273 192.0
153.197113 120.0
153.890121 52.0
154.189011 104.0
154.574799 96.0
155.071259 1428.0
155.231232 52.0
156.068756 260.0
156.095383 76.0
156.147614 84.0
156.274475 44.0
156.966934 224.0
157.07666 152.0
157.313721 176.0
158.556854 184.0
160.109451 72.0
161.059875 192.0
162.069702 216.0
162.315567 192.0
163.035553 656.0
163.575714 172.0
163.708115 36.0
164.04599 2224.0
164.228027 88.0
165.054306 320.0
165.577499 52.0
166.018295 180.0
166.049072 136.0
166.118332 168.0
166.279968 132.0
166.521317 100.0
166.562408 88.0
166.665176 148.0
166.773102 148.0
166.94986 192.0
167.034393 4864.0
167.067398 152.0
167.104843 148.0
167.382812 48.0
167.689377 44.0
168.033813 148.0
168.153625 60.0
169.038666 184.0
169.337753 116.0
169.923599 96.0
171.616776 40.0
172.784241 40.0
174.959885 244.0
175.505249 84.0
176.519211 84.0
177.06041 392.0
178.058838 140.0
179.026947 124.0
179.069427 2028.0
179.109512 144.0
179.722672 36.0
180.071518 124.0
180.371628 60.0
180.684509 64.0
181.05925 172.0
183.582733 96.0
185.928238 76.0
197.083801 196.0
198.122681 188.0
199.390961 108.0
204.983032 144.0
209.230698 68.0
217.023239 172.0
221.005478 156.0
231.025665 160.0
236.031921 180.0
247.744308 48.0
285.097015 52.0
342.527863 72.0
344.109924 52.0
363.064209 92.0
365.236694 92.0
393.9935 60.0
449.51123 52.0
490.75296 72.0
500.906189 76.0
537.669556 44.0
559.833374 120.0
685.883545 48.0
753.395264 184.0
762.249329 132.0
780.574158 204.0
816.596436 184.0
872.068237 88.0
872.450317 216.0
875.757385 208.0
919.734436 148.0
956.467102 220.0
958.844543 220.0
959.738403 144.0
965.196838 20.0
967.591248 160.0
967.646973 48.0
973.432068 140.0
974.096619 140.0
975.146667 64.0
978.655212 76.0
979.570679 156.0
1002.641174 192.0
1006.59021 164.0
1008.036804 44.0
1008.099976 80.0
1008.220093 80.0
1008.390686 120.0
1016.052734 144.0
1029.706665 244.0
1030.684082 152.0
1035.008057 188.0
1045.445679 76.0
1046.044189 64.0
1047.454468 152.0
1053.828369 108.0
1059.249634 48.0
1062.322266 208.0
1063.113892 192.0
1071.045776 124.0
1075.231689 200.0
1091.977661 136.0
1094.057007 168.0
1102.797241 176.0
1105.733765 104.0
1105.925781 216.0
1110.424561 108.0
1116.04248 128.0
1119.542725 140.0
1120.668457 204.0
1131.508301 152.0
1138.192993 188.0
1141.526001 196.0
1146.581665 160.0
1156.950073 148.0
1160.995117 244.0
1162.406128 180.0
1168.167603 144.0
1169.337891 168.0
1173.356934 160.0
1174.100098 236.0
1175.06189 176.0
1175.860352 220.0
1178.564575 164.0
1184.461792 244.0
1184.653564 136.0
1186.106323 160.0
1200.158447 188.0
1205.252441 176.0
1208.557495 80.0
1212.650269 124.0
1217.23584 168.0
1218.645874 244.0
1220.772949 108.0
1224.036499 148.0
1229.718262 180.0
1230.255737 64.0
1243.071167 160.0
1246.652588 52.0
1264.189697 152.0
1269.035889 156.0
1269.957764 128.0
1276.40625 152.0
1277.544189 212.0
1281.239014 216.0
1282.165283 172.0
1283.512573 144.0
1285.046143 160.0
1285.909546 132.0
1288.072998 228.0
1288.20166 248.0
1290.152466 236.0
1290.781738 160.0
1296.680542 292.0
1302.944946 144.0
1304.288696 192.0
1306.446045 156.0
1311.57312 176.0
1318.805542 160.0
1322.371216 72.0
1329.125366 128.0
1330.279297 192.0
1346.633545 156.0
1351.93396 168.0
1353.529785 180.0
1359.841675 196.0
1362.874634 148.0
1363.910889 284.0
1364.079956 232.0
1369.274536 52.0
1370.644775 152.0
1371.07959 144.0
1372.140991 192.0
1372.539185 220.0
1376.989136 224.0
1378.04541 176.0
1378.680908 168.0
1384.421631 88.0
1386.481079 168.0
1386.888794 128.0
1388.030396 160.0
1391.391602 144.0
1393.575073 208.0
1394.608032 132.0
1394.712158 112.0
1395.254761 132.0
1395.864502 116.0
1398.914917 128.0
1405.137695 116.0
1406.316772 92.0
1407.257324 212.0
1409.535522 140.0
1419.626221 112.0
1423.79126 152.0
1430.765503 220.0
1430.829346 80.0
1435.267212 172.0
1438.541504 180.0
1444.390259 156.0
1446.304688 180.0
1451.107544 132.0
1452.252563 156.0
1456.951294 236.0
1457.019653 224.0
1458.007568 228.0
1460.843628 144.0
1464.223145 176.0
1464.855347 112.0
1467.949707 136.0
1475.478271 124.0
1479.463989 176.0
1489.448242 172.0
1490.846558 180.0
1492.222534 208.0
1492.699219 156.0
1497.432129 216.0
1498.8573 68.0
1499.350464 228.0
1503.538208 172.0
1503.862305 196.0
1505.251953 144.0
