>compound SalbutamolSulfate
>formula C13H21NO3 
>ionization [M+H]+
>parentmass 240.16
#inchi InChI=1S/C13H21NO3/c1-13(2,3)14-7-12(17)9-4-5-11(16)10(6-9)8-15/h4-6,12,14-17H,7-8H2,1-3H3
#inchikey NDAUXUAQIAJITI
#Ion_Source LC-ESI
#Instrument qTof
#Compound_Source Isolated
#PI Sirenas
#Data_Collector Ed Esquenazi 
#Scan -1
#Precursor_MZ 240.16
#ExactMass 0.0
#Charge 1
#CAS_Number N/A
#Pubmed_ID N/A
#Smiles N/A
#INCHI_AUX N/A
#Library_Class 3
#SpectrumID CCMSLIB00000004730
#IonMode Positive
#UpdateWorkflowName UPDATE-SINGLE-ANNOTATED-BRONZE
#LibraryQualityString Bronze
#TaskID d19310cd93df49b68e9fcbec27720eb5
##Scan# 3
#SpectrumFile SalbutamolSulfate.mgf
#LibraryName fda_library.mgf
#MQScore -1
#Organism fda_library
#TIC_Query 0
#RT_Query -1
#MZErrorPPM -1
#SharedPeaks 0
#MassDiff 0
#LibMZ -1
#SpecMZ 240.16
#SpecCharge 0
#internalFilename spec-00000.mgf

>collision 10
100.701363 6.075
101.03685 77.721024
101.070824 10.06618
101.336975 12.36687
102.045776 295.704407
102.091141 2.020833
102.154427 2.333333
102.182549 50.83123
102.210686 4.007576
102.393715 9.11638
102.443062 15.52688
102.478165 6.355556
102.485374 14.33333
102.50634 7.095238
102.516472 5.157052
102.527794 24.53286
102.577484 18.82469
102.608833 24.987631
102.62085 3.640152
102.636353 37.341011
102.65435 3.35
102.664879 7.378623
102.707199 5.671875
102.749847 37.62952
102.776962 17.48148
102.79213 9.081897
102.805939 13.4406
102.816566 5.522727
102.841087 22.41441
102.887054 4.402778
103.000038 5.702587
103.006226 2.520833
103.028824 12.07419
103.052711 24952.890625
103.09597 347.694092
103.110405 63.42942
103.128098 71.709633
103.142365 18.074909
103.157562 38.141411
103.164742 43.357189
103.196121 21.548611
103.20446 37.28775
103.214752 30.251141
103.222923 11.26667
103.228844 18.0
103.242561 66.495369
103.249573 14.92857
103.26944 15.46991
103.282242 22.73707
103.296333 23.13286
103.311066 26.65752
103.320747 8.802777
103.332802 24.37742
103.343636 32.240589
103.349869 16.34524
103.375717 54.858318
103.393753 16.125839
103.420456 6.003788
103.432144 17.569441
103.438416 11.1875
103.453491 40.482639
103.466728 30.37674
103.483101 6.518939
103.494347 25.73037
103.506393 28.375509
103.516159 6.482143
103.534805 19.625
103.545532 28.209129
103.551407 7.454545
103.558762 15.33889
103.58802 9.229167
103.596359 23.520161
103.795059 8.75
103.81369 9.797101
103.856857 11.3705
103.920052 20.00794
104.075554 12.66774
104.260986 22.51903
104.270645 30.3578
104.339005 8.617424
104.347466 23.335711
104.421013 15.50508
104.495934 11.17361
104.532829 16.90546
104.611221 8.592593
104.617714 23.01827
104.648453 11.82315
104.703506 11.79167
104.713387 2.893518
104.727455 9.338889
104.826347 3.678571
104.854813 19.672621
104.883636 6.672619
104.972504 4.297619
105.032181 290.017303
105.05658 3912.091064
105.11412 17.67157
105.129814 11.4902
105.144569 14.17763
105.159401 12.8156
105.186897 3.083333
105.218513 5.335145
105.229263 9.05235
105.239944 14.53086
105.246735 7.827381
105.27562 9.823148
105.28643 19.2787
105.300613 14.72692
105.308739 2.893518
105.373283 29.179939
105.386299 6.358974
105.45784 20.864071
105.57209 6.702587
105.597115 6.678764
105.733948 5.414216
105.775932 8.109649
105.818901 12.08333
105.866035 10.71429
105.891548 5.802778
105.919098 9.450582
106.008179 4.458333
106.038773 179.512497
106.063568 4645.895996
106.108986 64.496582
106.123276 7.706141
106.141533 4.225
106.15258 7.371212
106.164833 10.67222
106.193924 5.449074
106.216667 11.87879
106.227234 5.666667
106.2603 8.231482
106.280914 6.133333
106.315849 5.483334
106.334824 6.004902
106.381981 16.122629
106.402969 3.337963
106.442467 11.35294
106.45031 3.926282
106.490036 16.003969
106.575317 10.10417
106.625755 39.324409
106.643562 2.694444
106.670822 5.415
106.938354 5.76923
107.047585 2657.717041
107.093002 5.177632
107.127411 2.367424
107.158684 28.29154
107.172325 7.015
107.191856 8.46558
107.229065 29.877529
107.449661 12.9881
107.469887 20.00119
107.518341 10.0498
107.572456 7.757883
107.887016 9.1875
108.056168 100.336998
108.079697 172.354797
108.171127 6.336111
108.205307 24.137751
108.338753 8.338235
108.360405 8.42803
108.643127 9.411822
108.789642 15.40833
109.064011 181.668793
109.671547 11.00833
115.525986 3.413462
116.046509 159.314102
116.338791 7.678764
116.350052 3.0
116.397163 29.23509
116.466049 10.52006
116.530243 12.78205
116.680504 6.666667
116.816307 3.185606
116.867645 8.265351
117.05529 3984.10498
117.104134 18.17778
117.120964 7.875
117.132744 9.966954
117.193909 17.26754
117.245277 14.11508
117.263695 15.33402
117.271103 9.125
117.313988 7.592949
117.352745 4.761905
117.366196 20.882139
117.399353 9.789634
117.444588 18.76667
117.463943 22.70422
117.47477 7.395833
117.486084 5.741667
117.50296 20.140499
117.546402 5.667929
117.595566 23.054819
117.664902 15.49
117.708649 9.761363
117.738861 12.04167
117.757278 9.813406
117.818123 3.666667
117.860214 8.518678
117.880478 4.640152
117.92511 18.01827
118.041161 27.24197
118.063385 10448.530273
118.10952 89.491737
118.131714 76.368042
118.150795 15.73848
118.170647 16.14826
118.178566 57.526081
118.188477 9.342054
118.204651 6.160257
118.219513 12.62976
118.225998 2.083333
118.235878 6.818182
118.252853 7.130741
118.26413 5.002193
118.290436 22.750521
118.30455 19.0098
118.344925 45.053101
118.359146 16.129271
118.378227 6.598684
118.402809 22.20417
118.415115 21.5641
118.423279 13.78241
118.44207 11.71354
118.464737 10.35556
118.47419 3.583333
118.498924 6.002778
118.510162 10.0
118.52301 21.721901
118.560974 9.506945
118.635109 7.401515
118.654182 6.408333
118.729935 16.42942
118.766396 6.482143
118.859222 12.40333
118.874016 8.816667
118.930969 11.9467
119.046906 3392.696045
119.144447 10.33889
119.159271 93.868446
119.18116 10.74833
119.208031 8.031566
119.2593 12.45683
119.284821 9.339286
119.291634 3.413462
119.310623 7.078432
119.337212 7.334349
119.381645 13.1053
119.406044 14.7555
119.424629 6.682971
119.435448 70.810463
119.466278 18.20273
119.477844 20.0
119.486641 8.115741
119.505562 17.364901
119.517166 25.70632
119.569145 17.66667
119.592751 18.087721
119.599869 8.37037
119.612595 11.79167
119.63102 29.14015
119.637627 6.005556
119.68499 11.63117
119.713737 15.45398
119.744202 6.002451
119.751808 6.023809
119.766098 31.12698
119.797852 7.041667
119.831779 15.91919
119.851059 9.117248
119.870384 42.810421
119.904366 9.396491
119.957474 9.012097
119.977295 23.87719
119.984787 5.469444
120.022194 13.40351
120.05368 1035.785034
120.078545 17830.580078
120.125328 151.716599
120.140137 123.750999
120.156601 26.760969
120.187477 14.74423
120.194321 15.51623
120.20118 132.901398
120.213348 55.218891
120.240761 41.291111
120.260635 35.964512
120.291557 27.225
120.302071 195.509003
120.329407 46.130772
120.359169 105.075401
120.385849 62.236881
120.399223 49.175259
120.40612 50.346859
120.418495 30.98214
120.439369 20.61364
120.445679 42.0
120.453362 128.342194
120.473251 60.610458
120.497932 60.278431
120.508476 115.862099
120.522392 13.56019
120.563423 39.400902
120.586769 8.003788
120.59359 21.06127
120.601608 24.183821
120.610542 25.185011
120.670723 13.58671
120.712051 81.618317
120.750824 3.185606
120.774246 16.34375
120.780968 4.449074
120.816101 16.0121
120.823738 28.793421
120.842018 26.887409
120.90461 39.617779
120.941551 29.027781
120.963783 24.667311
120.970978 26.823151
121.026642 34.33728
121.063026 47605.949219
121.233734 8.85049
121.25621 88.98893
121.266609 33.821079
121.277931 28.208031
121.322586 48.896179
121.330376 54.20866
121.359505 26.40641
121.366478 30.46368
121.412056 76.0662
121.436577 12.12297
121.454643 17.121059
121.464897 21.462959
121.482056 96.752296
121.514183 21.047409
121.538872 57.453129
121.556793 50.48732
121.571671 52.842621
121.586006 24.366671
121.592354 29.963329
121.609383 79.812469
121.617081 15.70833
121.637047 40.56712
121.650879 12.025
121.668602 33.617142
121.72039 11.30682
121.732185 55.654381
121.765091 9.1875
121.776199 59.767159
121.785744 15.74588
121.869469 15.48016
121.924255 6.541667
121.969688 25.0704
122.047058 16.67308
122.118828 6.462302
122.169838 29.337549
122.207787 7.844298
122.23912 10.17754
122.393494 15.36364
122.481613 11.15705
122.493355 7.189394
122.501831 4.358333
122.697563 32.799019
122.928574 3.002451
123.02356 12.18841
123.107384 29.13306
123.376404 7.805555
123.391869 13.85192
123.481133 9.858334
123.54187 9.177631
123.791321 13.59274
123.828926 7.344048
124.111725 16.73177
124.773727 2.520833
125.291817 65.61438
125.998535 8.284091
126.451881 4.668478
127.40036 5.480072
128.046387 578.316895
128.376251 5.939394
128.406235 4.013889
128.684341 7.481667
129.006165 7.573412
129.097015 7.906746
129.25148 14.59314
129.30072 14.88971
129.310913 24.7691
129.323776 4.675926
129.347519 11.3375
129.365997 20.33202
129.384048 29.41452
129.394989 10.8442
129.422684 14.3375
129.432388 20.114901
129.454361 2.0
129.469315 6.157051
129.476898 54.818939
129.484955 8.94697
129.500305 44.185162
129.529465 77.552879
129.541458 16.0
129.558228 14.48333
129.572952 9.669871
129.589203 3.354167
129.605637 14.043
129.634399 28.033331
129.661301 10.69583
129.676117 10.68709
129.709732 5.791667
129.720276 9.230769
129.763306 10.87083
129.791428 19.114731
129.854523 24.460091
129.92186 15.06368
130.063141 29231.720703
130.111557 73.207191
130.129517 56.963089
130.164047 73.635727
130.182999 63.78973
130.191437 15.47368
130.208466 79.579086
130.219421 36.333771
130.235291 20.67079
130.252014 76.374809
130.262054 7.190476
130.279297 19.57992
130.289642 74.088707
130.298828 12.85049
130.31987 130.810303
130.333344 42.26416
130.353149 50.467331
130.377502 77.550636
130.399521 39.89753
130.410126 23.676189
130.419434 40.32579
130.444839 30.830891
130.459488 12.17747
130.483337 62.814098
130.511337 65.233429
130.542892 38.823799
130.567184 20.055111
130.576813 8.111112
130.593292 47.820461
130.609161 33.341
130.627701 24.89912
130.649704 22.690319
130.666748 19.57803
130.755981 35.61871
130.847855 53.44202
130.883224 7.028153
130.927536 18.816601
130.966827 8.667636
130.989746 11.14815
131.047058 5198.296875
131.121826 26.199869
131.144653 36.441971
131.167389 24.0002
131.209579 26.02043
131.27356 15.76344
131.306534 38.212608
131.325882 20.4401
131.338394 17.55254
131.359985 35.030941
131.422852 96.180344
131.455032 22.85799
131.464905 7.186728
131.488876 15.66748
131.521576 18.297979
131.580643 2.700758
131.610855 21.074011
131.639679 56.278511
131.652878 24.68434
131.70874 16.163759
131.792282 9.32545
131.904083 5.357143
132.052475 78.58477
132.243912 4.001812
132.284882 11.64018
132.340454 7.639493
132.352554 12.07419
132.35994 17.67778
132.414642 56.409752
132.440018 12.2272
132.452866 13.48007
132.495895 45.458328
132.504089 7.67803
132.521439 24.847219
132.59967 15.79424
132.684341 2.683333
132.73526 6.041667
132.748474 2.0
132.813644 25.610041
132.824753 3.815476
132.840683 7.333333
132.869278 11.3344
132.956024 11.13038
132.97345 10.22685
133.021423 36.034088
133.050034 28889.449219
133.098831 284.375305
133.148575 5.063889
133.169296 54.077332
133.197968 83.943909
133.209824 11.33333
133.23584 78.843193
133.25032 35.347851
133.261993 20.686939
133.270004 28.59259
133.283188 124.195999
133.290176 19.702379
133.299042 27.80405
133.319397 129.627502
133.338303 63.411072
133.352661 35.749119
133.360352 19.628269
133.385742 148.952301
133.443726 51.18956
133.468018 31.80237
133.484421 19.59325
133.495239 22.05949
133.514328 15.81548
133.525452 9.605556
133.542252 66.706444
133.569489 12.83333
133.583206 20.063681
133.608475 8.777778
133.615662 7.007576
133.627731 8.0
133.640289 45.465271
133.656647 19.79167
133.680008 5.742284
133.704376 10.8375
133.716156 15.03409
133.743393 18.35759
133.761322 21.225571
133.788635 13.77381
133.841232 3.016667
133.933929 26.07692
134.377045 2.341667
134.431595 12.97984
134.462769 16.035521
134.574158 7.680555
134.622925 10.36687
134.727844 11.42014
134.780762 27.371469
134.80069 16.08375
134.824997 5.875
134.909622 2.00463
134.982361 6.05
135.040237 27.52355
135.065643 2662.196045
135.116592 18.23727
135.136887 4.083333
135.207153 7.928475
135.223129 13.0496
135.237106 13.76872
135.253296 4.363636
135.390228 9.8
135.415176 14.20455
135.423294 9.75
135.508301 10.77394
135.752777 3.933333
135.827255 13.34028
135.933853 8.018518
135.959274 17.853809
136.035278 21.97117
136.047501 27.335369
136.073822 1024.271973
136.104263 7.335318
136.115692 5.66821
136.234512 9.490196
136.356339 5.231482
136.455002 9.523809
136.688202 8.113095
136.799118 4.347222
137.058273 79.910507
137.190063 11.00658
138.559525 4.926282
139.522491 2.0
139.765488 6.001984
145.217804 27.220961
145.334702 9.032609
145.389755 14.4518
145.464737 6.482143
145.750198 12.41879
146.057327 1458.277954
146.107407 4.673077
146.166321 6.34543
146.195724 10.00113
146.204117 24.792191
146.230179 11.88587
146.271454 13.01956
146.341156 78.846321
146.406128 6.361111
146.494568 3.337963
146.536728 7.719017
146.577133 5.791667
146.675644 6.0
146.747284 10.35648
146.785522 12.97961
146.886383 2.375
146.966034 31.738501
147.024506 15.89851
147.065384 2286.753906
147.115585 16.719999
147.172684 4.42803
147.196121 13.81484
147.244675 17.58675
147.287354 15.1815
147.295151 3.341666
147.320984 26.003441
147.360855 53.369362
147.3759 8.213384
147.384323 5.001984
147.40123 6.088768
147.429626 13.44907
147.443466 18.7803
147.480148 12.96695
147.489929 14.00658
147.506836 12.3375
147.525085 17.589291
147.553543 3.42803
147.571335 10.12255
147.618546 14.93673
147.644058 16.409149
147.721603 18.130211
147.730469 10.11111
147.77478 27.212379
147.885712 5.702587
147.950806 14.67226
148.040894 21.694441
148.07309 17956.529297
148.124542 174.084106
148.14296 90.461243
148.159332 21.70833
148.170929 16.69318
148.194946 101.914497
148.217316 44.71167
148.240326 71.69577
148.273911 41.335918
148.29097 31.29137
148.310349 31.047621
148.325562 49.03767
148.36232 20.39604
148.371811 38.23703
148.382004 32.60931
148.401016 36.51263
148.426361 8.080882
148.437561 20.0979
148.464157 68.577827
148.472397 36.615082
148.486221 27.05278
148.501785 21.64378
148.516754 82.558487
148.544296 17.409189
148.554703 25.435671
148.567123 11.5377
148.577744 29.412069
148.627243 14.97348
148.65831 13.70249
148.672119 27.02702
148.706039 16.296671
148.7202 39.518398
148.740662 40.262451
148.75589 11.35648
148.798325 6.840517
148.841034 33.774422
148.887451 7.078432
148.918259 21.140409
148.935989 24.408251
148.999985 31.86771
149.456039 11.1875
149.609222 8.510964
149.650589 18.810711
149.80101 34.385071
149.886673 3.003788
150.115952 7.107143
151.108734 14.93426
151.348465 18.480261
151.440521 7.340278
154.859299 4.7
160.40155 19.061359
221.335922 9.391026
271.709137 7.5625
346.222595 3.36218
356.808411 16.287359
668.217529 52.70134
910.464111 8.083333
972.009521 5.414216
1062.411133 10.00097
1093.334839 6.095238
1288.299805 2.444444
1350.239258 2.0
1351.057495 5.671875
1385.270264 23.87076
1388.242798 18.485609
1473.315308 12.34131
