>compound MLS001074123-01!2,6-DIAMINO-3-(PHENYLAZO)-PYRIDINE HYDROCHLORIDE136-40-3
>formula C11H11N5
>ionization [M+H]+
>parentmass 214.107956
#inchi InChI=1S/C11H11N5/c12-10-7-6-9(11(13)14-10)16-15-8-4-2-1-3-5-8/h1-7H,(H4,12,13,14)
#inchikey QPFYXYFORQJZEC
#origInchi InChI=1S/C11H11N5.ClH/c12-10-7-6-9(11(13)14-10)16-15-8-4-2-1-3-5-8;/h1-7H,(H4,12,13,14);1H
#Ion_Source LC-ESI
#Instrument qTof
#Compound_Source NIH Pharmacologically Active Library
#PI Dorrestein
#Data_Collector VP/LMS
#Scan -1
#Precursor_MZ 214.111
#ExactMass 213.101
#Charge 1
#CAS_Number N/A
#Pubmed_ID N/A
#Smiles Nc1ccc(N=Nc2ccccc2)c(N)n1.Cl
#INCHI_AUX N/A
#Library_Class 1
#SpectrumID CCMSLIB00000084909
#IonMode Positive
#UpdateWorkflowName UPDATE-SINGLE-ANNOTATED-GOLD
#LibraryQualityString Gold
#TaskID d252d724072548979f1f6f1ced849daf
##Scan# 1542
#SpectrumFile p3-C06_GC6_01_18251.mzXML
#LibraryName Pharm_Active_Library.mgf
#MQScore -1
#Organism Pharm_Active_Library
#TIC_Query 0
#RT_Query -1
#MZErrorPPM -1
#SharedPeaks 0
#MassDiff 0
#LibMZ -1
#SpecMZ 214.111
#SpecCharge 0
#internalFilename spec-00000.mgf

>collision 10
44.963085 176.0
45.354984 176.0
45.561649 184.0
45.666504 216.0
45.825356 180.0
46.269714 268.0
46.549034 148.0
46.646595 164.0
46.861893 140.0
47.50584 172.0
47.599174 136.0
47.625267 164.0
47.910023 80.0
48.061687 148.0
48.167995 124.0
48.278568 188.0
48.313148 128.0
48.39204 176.0
48.472378 156.0
48.680462 160.0
49.181683 116.0
49.398277 116.0
49.44165 52.0
49.686871 136.0
50.236958 240.0
50.530819 152.0
50.704994 184.0
50.784393 244.0
51.01017 64.0
51.105457 148.0
51.115417 204.0
51.227898 252.0
51.285824 216.0
51.418972 172.0
51.587521 168.0
52.103451 136.0
52.283489 200.0
52.395512 212.0
52.422886 228.0
52.532467 128.0
52.893738 220.0
53.429234 148.0
53.576279 224.0
53.629288 152.0
54.050804 236.0
54.420185 100.0
54.743687 160.0
54.97514 140.0
55.23222 168.0
55.269207 128.0
55.295845 92.0
55.433575 132.0
55.862671 204.0
56.142696 172.0
56.341221 172.0
56.634418 208.0
56.728825 188.0
57.129791 168.0
57.467274 148.0
57.625813 140.0
57.772465 140.0
58.513088 136.0
59.68206 184.0
59.916008 160.0
60.059372 204.0
60.074799 236.0
60.179749 164.0
60.374451 164.0
60.892097 132.0
61.100395 164.0
61.686775 132.0
61.755577 220.0
61.829113 160.0
61.95438 72.0
62.010792 112.0
62.17704 176.0
62.214714 184.0
62.238262 96.0
62.379662 68.0
62.513355 124.0
62.620411 164.0
63.72937 124.0
63.777046 160.0
64.144753 220.0
64.484741 220.0
64.495926 140.0
64.627068 156.0
64.905777 200.0
65.005234 172.0
65.03894 144.0
65.217232 140.0
65.395767 164.0
65.517899 180.0
65.630974 60.0
65.771332 60.0
65.79232 168.0
65.953857 172.0
66.567902 144.0
66.894707 184.0
67.261482 124.0
67.560532 236.0
67.698021 108.0
67.743889 184.0
67.911568 148.0
67.945534 172.0
68.427086 168.0
68.494606 152.0
68.738617 168.0
68.949997 220.0
69.201439 68.0
69.279282 116.0
69.338928 244.0
69.459969 124.0
70.200104 76.0
70.522324 52.0
70.704628 164.0
70.945831 184.0
71.001167 168.0
71.056519 196.0
71.197525 204.0
71.214317 212.0
71.227753 124.0
71.293282 100.0
71.315132 168.0
71.626419 184.0
71.767982 48.0
71.928261 224.0
72.305176 140.0
72.38813 160.0
72.717026 120.0
73.383873 68.0
73.406036 100.0
74.202843 200.0
74.443069 60.0
75.024643 140.0
75.04705 176.0
75.320724 160.0
75.456253 116.0
75.823227 180.0
76.244965 156.0
76.566818 180.0
76.636497 152.0
76.854454 164.0
77.023796 216.0
77.205566 188.0
77.219559 172.0
77.473373 132.0
78.175713 176.0
78.381744 160.0
78.761055 40.0
79.049232 144.0
79.233383 88.0
79.852898 152.0
79.966766 212.0
81.170883 180.0
81.226479 176.0
81.517334 260.0
81.564064 244.0
81.817711 160.0
82.091591 108.0
82.290077 40.0
82.389412 104.0
83.322433 180.0
83.460571 164.0
83.881126 156.0
84.052567 140.0
84.236969 76.0
84.368546 180.0
84.62468 156.0
84.960075 128.0
85.185875 204.0
85.454292 144.0
85.833725 220.0
86.141945 168.0
86.249123 196.0
86.515503 172.0
87.486435 144.0
87.680153 156.0
87.764038 136.0
88.247635 96.0
88.378563 208.0
88.805687 264.0
88.845085 220.0
89.006493 64.0
89.69696 136.0
89.785576 316.0
89.823303 212.0
90.297394 180.0
91.199905 192.0
91.687141 212.0
92.049217 204.0
92.080162 208.0
92.345825 152.0
92.44722 180.0
92.63678 188.0
92.941612 220.0
93.027985 84.0
93.057144 5168.0
93.075241 176.0
93.263222 164.0
93.4431 84.0
93.66256 60.0
93.891922 148.0
94.06208 604.0
94.113838 108.0
94.252914 112.0
94.570076 52.0
94.587151 92.0
94.742416 272.0
94.790855 196.0
94.808296 176.0
94.984734 196.0
95.047997 996.0
95.101158 140.0
95.188522 36.0
95.378914 148.0
95.602585 144.0
95.623993 48.0
95.9571 132.0
96.037048 124.0
96.057381 408.0
96.325943 40.0
96.513565 268.0
96.840378 44.0
96.895226 148.0
97.036903 344.0
97.148125 68.0
97.189331 188.0
97.208954 124.0
97.307091 212.0
97.562492 156.0
97.837921 152.0
97.924561 180.0
97.993507 124.0
98.111755 188.0
98.295189 176.0
98.423492 164.0
98.492615 172.0
98.636864 148.0
98.985069 204.0
99.403336 204.0
99.828445 152.0
100.268417 176.0
100.38205 208.0
100.861206 184.0
101.04528 172.0
101.473793 84.0
101.535957 160.0
101.598137 92.0
101.754677 256.0
101.851074 176.0
101.99575 140.0
102.035797 412.0
102.297485 32.0
102.369965 132.0
102.432404 164.0
102.714615 192.0
102.841728 112.0
102.91037 184.0
103.02549 160.0
103.043671 156.0
103.316605 188.0
103.438026 120.0
103.835159 128.0
103.898041 156.0
104.02375 192.0
104.048218 188.0
104.239151 172.0
104.485176 164.0
104.515694 56.0
104.597099 196.0
104.672432 164.0
104.753899 180.0
105.037247 220.0
105.198448 188.0
105.370003 204.0
105.656219 144.0
105.88958 192.0
105.963326 192.0
106.035309 376.0
106.055542 128.0
106.069885 204.0
106.332428 64.0
106.533653 128.0
107.014046 176.0
107.059151 376.0
107.239449 164.0
107.350784 56.0
107.738823 204.0
107.83181 116.0
108.055916 5344.0
108.133766 40.0
108.15033 76.0
108.225418 108.0
108.278694 96.0
108.388489 88.0
108.405067 132.0
108.452736 104.0
108.546028 56.0
108.65181 132.0
109.063675 7032.0
109.173164 64.0
109.193962 72.0
109.279251 120.0
109.350006 28.0
109.535797 52.0
109.556152 148.0
109.63533 188.0
109.762489 152.0
109.796608 200.0
109.821098 60.0
109.841743 76.0
109.946068 160.0
110.069344 816.0
110.391037 44.0
110.462151 56.0
111.082207 176.0
111.390785 184.0
112.072426 152.0
112.274788 64.0
112.298805 196.0
112.785736 188.0
112.838585 124.0
112.874527 44.0
113.280891 112.0
113.359283 88.0
114.091553 188.0
114.627914 160.0
114.977654 160.0
115.05304 588.0
115.167679 92.0
115.246719 56.0
115.638062 152.0
115.871475 76.0
115.974335 52.0
116.048088 276.0
116.841881 120.0
116.983917 132.0
117.052818 272.0
117.335075 196.0
117.378197 172.0
117.66758 172.0
117.751541 180.0
117.796898 180.0
118.010857 132.0
118.057838 132.0
118.430687 176.0
118.474007 92.0
119.062416 396.0
119.122643 200.0
119.344315 88.0
119.864548 112.0
120.008408 116.0
120.061325 180.0
120.311668 48.0
120.59346 176.0
120.801186 124.0
120.877472 152.0
120.901833 148.0
121.009094 88.0
121.050865 8808.0
121.175545 140.0
121.204033 100.0
121.263199 200.0
121.35746 100.0
121.425438 144.0
121.526352 120.0
121.589989 120.0
121.686569 164.0
121.701942 96.0
121.748055 156.0
121.827126 68.0
121.875465 156.0
121.926003 96.0
121.965569 176.0
121.994141 100.0
122.013603 128.0
122.058998 16636.0
122.099686 108.0
122.167877 52.0
122.236076 132.0
122.264687 76.0
122.329803 96.0
122.418793 88.0
122.447418 212.0
122.523415 76.0
122.608246 76.0
122.663353 64.0
122.749336 84.0
122.952293 164.0
123.063919 1644.0
123.100197 96.0
123.135536 120.0
123.261459 80.0
123.385231 88.0
123.785713 108.0
123.901085 140.0
124.02433 188.0
124.050865 1480.0
124.20459 140.0
124.297775 104.0
124.410965 28.0
124.681953 72.0
124.790878 68.0
125.039169 188.0
125.057823 200.0
125.735367 240.0
126.048012 164.0
127.381081 76.0
128.047623 456.0
128.148224 144.0
128.897354 44.0
129.049927 112.0
130.038193 148.0
130.059158 96.0
130.120453 60.0
131.058578 112.0
132.052841 132.0
132.078217 216.0
133.069397 236.0
134.070908 184.0
135.069519 180.0
135.091461 148.0
136.053192 152.0
136.166977 40.0
136.455124 160.0
138.169327 76.0
138.665741 160.0
138.961212 36.0
139.515472 92.0
140.051102 380.0
140.080261 52.0
140.181564 124.0
140.198074 76.0
141.053314 352.0
141.812271 172.0
141.843079 68.0
142.069168 176.0
143.058838 828.0
144.057755 332.0
144.802429 160.0
145.051361 148.0
145.066345 224.0
146.066391 140.0
146.221344 60.0
146.31041 60.0
146.946671 52.0
147.066971 432.0
147.110779 60.0
147.577057 164.0
147.603653 156.0
148.058258 200.0
148.073624 216.0
149.817169 208.0
150.883667 188.0
152.044724 164.0
152.061905 76.0
152.693314 140.0
152.993515 184.0
153.042572 984.0
153.353149 32.0
153.747757 76.0
154.048615 148.0
154.330734 212.0
154.667191 64.0
155.063477 152.0
156.048981 140.0
156.733459 164.0
156.965271 172.0
157.061691 352.0
157.364502 152.0
157.754028 148.0
158.079376 160.0
159.079422 196.0
159.604507 184.0
160.070755 232.0
161.043488 168.0
162.085785 132.0
162.676727 120.0
162.752884 80.0
163.642807 88.0
164.987335 60.0
166.79715 168.0
167.038864 184.0
167.386322 184.0
168.068665 260.0
168.255219 184.0
168.593597 56.0
169.070236 168.0
169.955673 32.0
170.070023 1856.0
170.344925 120.0
171.074249 372.0
171.101868 188.0
172.076859 128.0
172.602127 84.0
173.060028 204.0
173.085449 288.0
173.466095 96.0
173.770309 136.0
174.094116 212.0
174.416336 40.0
174.574081 216.0
177.052124 124.0
180.053818 1444.0
180.196274 36.0
180.59726 48.0
180.645416 48.0
180.987976 80.0
181.060425 308.0
182.0728 244.0
182.103577 152.0
182.848312 68.0
183.042145 124.0
183.06369 136.0
183.484024 148.0
183.975021 192.0
184.087936 1180.0
185.071884 296.0
185.09137 112.0
185.126846 40.0
186.065018 256.0
186.885818 180.0
187.100189 300.0
190.912399 44.0
191.281082 52.0
191.366425 52.0
193.013687 228.0
193.248795 176.0
194.881866 152.0
194.948563 152.0
195.066269 348.0
195.713516 36.0
196.074844 320.0
196.245697 156.0
196.429764 120.0
196.951202 204.0
197.08194 3680.0
197.176575 240.0
197.306641 28.0
197.396118 76.0
197.446457 64.0
197.466034 96.0
197.491196 112.0
198.031387 132.0
198.088058 2688.0
198.123825 40.0
198.530258 116.0
198.805176 44.0
199.081146 392.0
199.513 132.0
200.075653 136.0
200.46434 44.0
200.619354 88.0
202.110596 44.0
203.048248 184.0
205.312057 56.0
206.980911 184.0
209.45079 224.0
210.928177 124.0
211.532745 88.0
212.096344 544.0
213.050964 304.0
213.096008 732.0
213.665726 68.0
214.067398 68.0
214.107956 2652.0
214.250885 116.0
214.469437 64.0
214.580215 28.0
214.77269 44.0
215.029449 40.0
215.114197 336.0
215.310806 60.0
216.107742 188.0
216.186752 88.0
216.713821 68.0
216.810516 112.0
219.064133 104.0
219.288071 108.0
249.474899 108.0
254.126968 56.0
267.376862 60.0
289.132111 116.0
303.791351 116.0
305.935516 48.0
317.932343 44.0
369.989685 68.0
383.288147 60.0
488.298248 64.0
568.84314 44.0
601.336365 68.0
620.625671 144.0
623.002991 164.0
655.019226 100.0
750.015503 176.0
755.93573 84.0
868.819092 172.0
874.96051 168.0
896.235413 140.0
924.979309 176.0
930.234924 76.0
933.643494 148.0
933.801636 52.0
939.539673 148.0
941.572327 100.0
945.307556 188.0
947.43219 128.0
959.027649 128.0
961.760132 116.0
969.677002 152.0
986.45813 140.0
992.744263 184.0
993.559692 204.0
1004.505798 256.0
1004.638245 160.0
1012.260681 256.0
1018.044067 212.0
1020.248901 144.0
1021.387146 180.0
1041.669922 184.0
1047.504395 52.0
1050.998657 180.0
1056.393311 156.0
1064.118408 108.0
1064.969116 132.0
1072.608032 208.0
1074.166504 176.0
1083.324829 224.0
1086.615967 140.0
1087.692139 100.0
1088.723022 132.0
1089.208984 196.0
1094.983887 176.0
1096.782715 172.0
1099.902588 224.0
1103.965942 148.0
1110.25061 212.0
1110.980225 204.0
1113.741577 236.0
1116.985352 200.0
1121.066772 168.0
1136.627563 228.0
1145.583008 144.0
1147.685791 132.0
1149.081909 136.0
1149.60144 248.0
1150.708496 124.0
1151.795776 204.0
1152.694336 124.0
1153.086304 192.0
1157.083984 236.0
1157.158447 168.0
1161.265015 160.0
1167.79895 104.0
1170.89563 76.0
1172.080933 68.0
1172.701172 164.0
1174.323853 232.0
1175.081055 172.0
1175.722534 236.0
1184.22998 188.0
1189.582764 200.0
1189.836792 144.0
1196.553711 80.0
1197.083984 228.0
1198.296265 184.0
1198.578735 228.0
1205.458496 112.0
1206.916992 200.0
1208.875488 160.0
1209.255249 132.0
1215.4021 152.0
1217.866577 124.0
1220.264038 176.0
1220.6604 144.0
1222.921387 184.0
1226.306396 152.0
1226.522461 36.0
1227.603149 232.0
1227.826294 136.0
1229.549561 132.0
1231.35083 176.0
1239.311523 56.0
1240.622192 188.0
1244.150879 160.0
1247.614258 124.0
1250.906616 140.0
1251.42749 236.0
1255.528687 164.0
1259.248047 156.0
1261.19812 128.0
1263.637817 168.0
1265.201904 188.0
1267.000732 196.0
1267.35498 144.0
1270.219116 36.0
1272.177734 184.0
1272.44043 164.0
1273.13623 148.0
1274.876831 176.0
1276.006958 216.0
1278.169189 128.0
1280.58252 172.0
1282.812866 124.0
1284.331665 220.0
1287.364868 132.0
1287.521973 200.0
1289.386719 216.0
1289.493896 48.0
1293.112915 184.0
1297.539795 136.0
1298.220947 160.0
1303.87085 144.0
1306.819092 104.0
1308.287354 164.0
1310.404663 164.0
1311.30542 212.0
1312.523804 108.0
1314.983765 156.0
1322.645386 184.0
1326.999268 180.0
1328.0 152.0
1328.783447 252.0
1330.416382 144.0
1331.0625 132.0
1331.236816 152.0
1332.871216 148.0
1334.012329 144.0
1335.283813 140.0
1338.581421 112.0
1342.078979 248.0
1344.347656 220.0
1347.041748 156.0
1347.75769 204.0
1350.557739 132.0
1351.33313 184.0
1353.755981 144.0
1358.358765 208.0
1359.752808 236.0
1362.792969 200.0
1362.851807 212.0
1363.417603 124.0
1364.049683 156.0
1366.417725 172.0
1366.918091 164.0
1367.212402 36.0
1367.793823 188.0
1369.045532 36.0
1370.378784 148.0
1375.231079 228.0
1379.796265 204.0
1383.288086 104.0
1383.458374 224.0
1386.524536 180.0
1386.658325 196.0
1388.008301 180.0
1388.252197 192.0
1389.706055 176.0
1391.650757 236.0
1394.518188 172.0
1397.492798 92.0
1399.822632 120.0
1400.38855 144.0
1402.832642 156.0
1403.372192 216.0
1403.65271 248.0
1404.391113 124.0
1405.002808 168.0
1409.415283 140.0
1410.751831 200.0
1411.082031 136.0
1411.283936 136.0
1412.293579 76.0
1413.348389 188.0
1414.373657 252.0
1415.848633 140.0
1417.182007 200.0
1418.193726 164.0
1418.943359 152.0
1419.663208 204.0
1421.613647 160.0
1422.093994 92.0
1424.226318 152.0
1427.841553 176.0
1429.729858 244.0
1430.761108 192.0
1431.438721 176.0
1436.141479 64.0
1437.076904 208.0
1438.7146 144.0
1439.583008 44.0
1440.5271 168.0
1443.754517 196.0
1443.82251 176.0
1444.162842 184.0
1444.692383 152.0
1446.750854 72.0
1449.636597 180.0
1450.091309 180.0
1451.213257 152.0
1451.486206 216.0
1451.926025 216.0
1454.938354 208.0
1460.151001 84.0
1463.47644 160.0
1464.519775 236.0
1464.885376 100.0
1466.432251 172.0
1468.216187 152.0
1468.452637 176.0
1468.582275 252.0
1468.727295 176.0
1471.337036 64.0
1472.574097 144.0
1475.592529 144.0
1475.898438 28.0
1478.185547 156.0
1480.911011 204.0
1481.401245 220.0
1481.991089 148.0
1482.665894 188.0
1484.091309 132.0
1486.799072 228.0
1487.712524 228.0
1487.88147 192.0
1488.733765 140.0
1497.177734 140.0
1501.778809 56.0
1502.033447 48.0
1502.951538 196.0
1503.669189 192.0
1504.873413 156.0
