>compound Ramelteon
>formula C16H21NO2 
>ionization [M+H]+
>parentmass 260.165741
#inchi InChI=1S/C16H21NO2/c1-2-15(18)17-9-7-12-4-3-11-5-6-14-13(16(11)12)8-10-19-14/h5-6,12H,2-4,7-10H2,1H3,(H,17,18)/t12-/m0/s1
#inchikey YLXDSYKOBKBWJQ
#Ion_Source LC-ESI
#Instrument qTof
#Compound_Source Isolated
#PI Sirenas
#Data_Collector Ed Esquenazi 
#Scan -1
#Precursor_MZ 260.165
#ExactMass 0.0
#Charge 1
#CAS_Number N/A
#Pubmed_ID N/A
#Smiles N/A
#INCHI_AUX N/A
#Library_Class 3
#SpectrumID CCMSLIB00000005637
#IonMode Positive
#UpdateWorkflowName UPDATE-SINGLE-ANNOTATED-BRONZE
#LibraryQualityString Bronze
#TaskID d19310cd93df49b68e9fcbec27720eb5
##Scan# 1
#SpectrumFile Ramelteon.mgf
#LibraryName fda_library.mgf
#MQScore -1
#Organism fda_library
#TIC_Query 0
#RT_Query -1
#MZErrorPPM -1
#SharedPeaks 0
#MassDiff 0
#LibMZ -1
#SpecMZ 260.165
#SpecCharge 0
#internalFilename spec-00000.mgf

>collision 10
100.075577 289.166107
100.102531 1.127232
100.405746 8.862248
103.034477 6.585801
103.055809 45.01099
105.068886 128.262894
107.047432 9.438802
108.347847 7.725677
109.379654 23.96524
115.053444 102.166397
115.423363 5.958581
115.996025 3.949013
116.062096 61.797901
119.046837 8.034801
121.06292 7.940444
124.201271 19.365789
127.056374 31.79027
128.061279 13.31101
129.069656 55.215542
131.04866 61.775139
131.084778 249.710495
132.057434 30.1397
132.087265 23.400551
132.213303 5.606534
132.534302 12.03837
132.619843 5.046052
132.866165 5.840074
133.065125 1851.494019
133.100128 20.074909
133.115784 6.274603
133.197495 8.155084
133.221466 5.076562
133.231781 5.548478
133.251389 23.303749
133.260742 5.707779
133.291336 21.058161
133.328918 5.029588
133.348419 7.447515
133.361816 13.06337
133.383438 5.740057
133.432404 6.681625
133.549026 6.166119
133.630829 5.501302
134.231918 6.642014
134.459686 6.769185
134.95166 11.80671
137.748489 17.28002
140.105438 200.900208
140.97287 13.55786
141.069656 81.316223
141.388351 6.224506
141.446274 4.163584
141.636749 6.012228
143.087418 100.375504
144.05632 138.139496
144.090988 86.433746
144.759811 2.556818
144.812836 5.620536
144.838425 3.273809
145.064926 129.428101
145.106079 24.92321
147.076828 10.48438
153.347946 5.017314
156.333649 6.727539
157.060364 25.796511
157.074539 4.185033
157.095078 5.454102
157.295715 4.5
157.311066 9.360308
157.644958 6.952423
158.073776 233.472595
158.130981 5.000401
158.18779 13.33788
158.217911 8.355007
158.23674 11.1241
158.256943 8.150899
158.369202 5.056818
158.436844 7.845274
158.67749 2.625744
158.737213 7.628125
158.787552 7.224114
158.848495 9.029741
159.055923 57.955311
159.080002 7486.796875
159.112259 23.410721
159.133286 87.094116
159.151047 29.46426
159.171478 12.05898
159.200363 28.52919
159.21257 2.875
159.235062 13.49049
159.295425 26.392071
159.336975 13.10511
159.361862 4.253606
159.374146 6.725
159.382935 4.38125
159.400299 14.76104
159.418961 4.039063
159.436111 8.667315
159.462555 38.826099
159.48912 14.1592
159.521957 22.126829
159.542419 6.407227
159.594681 9.282269
159.671783 10.2197
159.690826 7.625274
159.743698 30.90486
159.771103 9.1875
159.93837 6.551042
160.084244 63.445511
160.225418 12.59279
160.261841 9.794887
160.278229 6.169424
160.316376 9.240566
160.349762 9.079166
160.424484 9.275208
160.620514 7.626736
160.647705 5.058824
160.730377 6.147727
161.067398 9.279797
161.095917 6878.729004
161.150085 51.98296
161.168396 21.89896
161.227066 14.69186
161.249649 34.11916
161.269287 25.50561
161.286926 10.50023
161.306702 27.784639
161.322754 8.648201
161.331543 4.825
161.342819 8.132401
161.371078 11.35249
161.397308 6.276042
161.406128 3.757972
161.423889 5.275
161.445602 14.55729
161.466751 5.878472
161.476624 8.379018
161.494537 5.25463
161.521042 5.006579
161.617233 8.216845
161.631622 7.6375
161.681351 12.7494
161.711624 6.016544
161.783508 6.920139
161.817429 6.252232
161.950989 9.797852
161.969193 10.3125
162.184952 6.627232
162.335876 3.097801
162.87735 16.400209
163.792725 4.391129
164.104996 6.951923
168.183258 2.410714
168.203369 4.454545
168.320801 11.96875
168.382965 3.79375
169.078949 18.92149
169.101089 1189.404053
169.186401 8.033334
169.241852 6.390625
169.328674 6.010016
169.373764 7.064904
169.432846 5.8606
169.449112 14.99632
169.474136 20.21328
169.500534 4.375274
169.518829 9.965517
169.692841 4.595588
171.07988 12.16116
171.289703 6.62963
172.08873 251.525803
172.187042 6.161033
172.248947 8.575
172.274628 5.751359
173.096405 298.229004
173.193665 2.445023
173.538147 11.35523
173.595276 3.960938
175.111176 62.455742
181.57019 7.164501
182.214172 7.194471
182.941605 12.5
183.123016 9.9375
184.088898 13.38332
185.095612 94.359512
185.856689 9.750568
186.030106 6.638936
186.083939 11.04575
186.099396 32.898411
186.126923 99.536186
186.143082 22.058201
186.165985 12.52869
186.190552 11.18557
186.226425 7.752038
186.239197 35.759769
186.26445 3.132353
186.278687 4.625
186.294769 5.546052
186.305405 5.102083
186.478165 3.414063
186.5242 14.70596
186.558273 18.404381
186.57814 6.847656
186.801346 7.375168
187.072433 13.78204
187.111938 12669.959961
187.187271 28.31403
187.257935 2.3
187.271042 52.354641
187.291885 22.90748
187.314667 27.96863
187.336914 41.184811
187.360733 32.142189
187.38472 44.385769
187.402771 36.095558
187.421112 20.085329
187.433685 21.67683
187.450699 6.268066
187.475189 25.042259
187.505997 20.654039
187.530121 13.79719
187.549652 10.13511
187.567337 14.16585
187.616058 8.03125
187.64389 6.75601
187.665665 9.198291
187.711761 12.79282
187.754745 20.20335
187.844101 5.377992
188.445953 5.419424
188.545319 6.630208
188.61763 13.27083
188.636017 5.321368
190.537506 4.352083
197.097 17.59054
198.845795 4.284091
199.108719 21.722481
200.775742 4.532552
200.899704 4.875
201.600464 3.194504
201.743561 10.20054
202.122833 237.794495
202.346573 3.145665
202.360565 5.016984
202.554199 5.869792
202.589737 7.09375
202.776062 11.35018
202.814209 4.421875
202.831329 47.876411
202.853516 22.90052
202.866928 50.307331
202.885025 44.90625
202.899475 20.4466
202.91124 15.45313
202.922226 77.889648
202.933456 15.86742
202.9478 104.494598
202.966873 149.737701
202.988464 149.064804
203.008713 69.15699
203.032837 153.2547
203.046661 110.823097
203.066818 31.689699
203.078583 29.225
203.094055 92.35968
203.108673 46.50272
203.15065 89.014252
203.168518 35.766121
203.187531 23.123739
203.2061 2.790296
203.216614 66.903229
203.23439 21.007299
203.248917 120.165802
203.277512 84.392036
203.295319 33.835861
203.307175 27.365459
203.319077 52.66235
203.343185 75.471848
203.379059 61.527809
203.550873 8.407143
203.575882 183.242203
203.612961 7.629167
203.635712 21.549789
203.66423 40.839691
203.68541 15.87877
203.711304 33.866901
203.727448 48.674782
203.755463 16.66828
203.766876 18.65414
203.79715 27.934681
203.815781 15.76503
203.888275 37.02441
203.952011 6.860054
204.064682 46.1782
204.139145 144971.5
204.199371 12.54504
204.5047 1.752604
204.530609 2.50625
204.599792 3.973395
204.627228 92.274803
204.660812 84.807938
204.680191 80.193497
204.704544 75.431099
204.734726 117.7444
204.760666 115.854599
204.781479 23.941509
204.809845 95.278954
204.840927 54.58186
204.860748 69.889961
204.898788 86.266991
204.917114 11.74414
204.93103 56.956131
204.95488 43.49062
204.987366 11.71807
205.012589 69.326729
205.072266 62.96769
205.198563 38.47163
205.447098 32.380611
205.473679 14.67433
205.489136 20.66807
205.542389 12.00953
205.604752 21.7775
205.721008 6.395833
205.771957 16.60243
205.826019 18.5303
205.879044 23.46825
205.915054 7.414501
205.974792 32.31218
206.060074 4.415827
206.105438 14.42976
206.121613 6.720052
206.214035 7.524698
206.253082 20.494711
206.279343 11.54545
206.310577 8.860064
206.362335 15.88537
206.432724 11.21766
206.5849 16.378349
207.014786 6.526326
207.051407 12.50419
207.064774 8.875473
207.148972 16.390511
207.178772 7.745536
207.298294 3.847356
207.371368 4.820503
207.430435 7.257734
208.199142 13.43838
208.219299 7.640159
208.594498 4.750347
208.640503 8.08507
208.659821 6.1964
209.192749 10.12601
209.278397 9.083467
209.641708 11.05972
209.721313 5.008333
210.543503 4.4602
210.806305 8.39389
211.544342 5.125823
211.635361 8.247479
212.486374 6.001116
212.800888 4.338542
213.238098 8.411184
215.102631 33.17881
215.166641 5.715144
216.139038 18.550871
216.460281 4.897978
217.116531 7.441875
220.243774 2.377404
228.556656 8.204166
231.136337 5.016633
233.89032 10.68085
240.823151 5.105469
242.089584 15.26853
242.154404 607.262329
242.293747 4.250401
242.461655 4.126736
242.495438 6.416941
243.019867 3.285714
243.783585 3.222656
244.666351 2.892857
254.076767 9.273011
255.542633 5.160714
256.299164 3.951562
257.190308 3.760817
257.263611 9.129537
257.397888 8.533089
257.888916 6.257102
257.945496 12.04957
258.02594 7.450674
258.179901 11.49694
258.357208 3.828125
258.414307 8.750845
258.431152 2.87843
258.464478 44.149261
258.499481 60.913719
258.530212 97.865509
258.550903 8.516078
258.585449 207.365906
258.610962 60.689892
258.624969 49.637821
258.638336 31.88273
258.653015 209.406601
258.677032 320.60791
258.706543 70.143677
258.728088 27.92836
258.74173 150.129303
258.761078 32.096081
258.78302 84.610489
258.80719 234.399994
258.823547 23.37904
258.8414 85.710327
258.858093 73.774261
258.878113 26.195271
258.902405 218.751297
258.919983 7.536458
258.93985 43.356129
258.954376 136.388901
258.977844 42.525551
259.016083 61.012569
259.046997 13.25969
259.135223 80.892067
259.16272 16.920361
259.190125 28.326679
259.224213 55.49168
259.268463 91.630318
259.323273 70.844109
259.381836 45.425671
259.404663 7.022727
259.422272 6.788352
259.443451 63.419998
259.476562 49.76123
259.560608 12.65625
259.595337 29.399151
259.693939 23.017031
259.715515 45.103271
259.767029 42.92807
259.926361 7.653218
259.995483 11.85036
260.043457 12.34486
260.061432 180.625397
260.078033 10.88824
260.117737 15.74589
260.165741 181545.203125
260.426361 8.907967
260.503143 11.63574
260.710297 117.0084
260.76416 40.37677
260.780365 45.682152
260.82605 53.42654
260.859741 121.001503
260.879181 24.747231
260.97406 142.650497
260.999969 106.689102
261.022339 27.69836
261.07547 62.64653
261.11145 59.093769
261.131592 8.408334
261.190002 1.78125
261.235107 93.032188
261.297394 15.174
261.310638 20.706169
261.348541 56.07803
261.387665 46.272041
261.421509 74.040077
261.536133 45.845581
261.629486 41.130299
261.643768 60.508209
261.688629 14.89155
261.791962 25.392891
261.955536 23.77817
262.185608 13.42574
262.202026 11.50703
262.245178 17.16663
262.287231 18.50946
262.324585 10.37837
262.511749 5.180027
262.577728 21.66116
262.805634 32.06538
262.983612 14.14375
263.020477 6.127163
263.151245 10.58726
263.172852 2.158288
263.187775 10.56948
263.216553 6.642857
263.562683 8.323255
263.620117 15.19504
263.867493 4.638393
263.901794 10.63798
263.946594 6.292535
263.977264 10.60045
264.008789 2.627841
264.331085 4.183894
264.557892 4.225
264.676208 3.075446
264.789429 6.252557
265.462891 7.772727
265.599548 4.4
265.668243 16.178989
265.878479 10.24614
265.975067 6.447581
266.030609 6.801282
266.150787 4.683681
266.513824 6.278944
267.849396 6.891129
268.483215 17.79747
271.613983 5.35462
278.168854 6.756853
284.86264 10.10061
288.993469 8.540541
316.578827 20.38237
431.364105 5.911458
605.511536 18.37994
877.437378 26.505171
897.574097 5.583681
1017.821655 3.075446
1045.520752 6.131945
1110.833618 12.86842
1313.633057 5.502992
1589.618164 9.959375
