>compound Saliniketal A
>formula C22H37NO5 
>ionization [M+H]+
>parentmass 396.274
#inchi InChI=1S/C22H37NO5/c1-12(8-7-9-13(2)21(23)26)18(24)15(4)19(25)16(5)20-14(3)17-10-11-22(6,27-17)28-20/h7-9,12,14-20,24-25H,10-11H2,1-6H3,(H2,23,26)/b8-7+,13-9-/t12-,14+,15+,16+,17+,18-,19+,20+,22-/m0/s1
#inchikey GRVRRAOIXXYICO
#Ion_Source LC-ESI
#Instrument qTof
#Compound_Source Isolated
#PI Fenical-Jensen-Moore
#Data_Collector Max
#Scan -1
#Precursor_MZ 396.274
#ExactMass 395.267
#Charge 1
#CAS_Number N/A
#Pubmed_ID N/A
#Smiles N/A
#INCHI_AUX N/A
#Library_Class 1
#SpectrumID CCMSLIB00000001641
#IonMode Positive
#UpdateWorkflowName UPDATE-SINGLE-ANNOTATED-GOLD
#LibraryQualityString Gold
#TaskID d14a5843653040ba9fa2c4376f2be358
##Scan# 1
#SpectrumFile d12.mgf
#LibraryName gnps_library.mgf
#MQScore -1
#Organism gnps_library
#TIC_Query 0
#RT_Query -1
#MZErrorPPM -1
#SharedPeaks 0
#MassDiff 0
#LibMZ -1
#SpecMZ 396.274
#SpecCharge 0
#internalFilename spec-00000.mgf

>collision 10
51.023392 173.710907
52.02594 18.762449
53.039051 509.461609
54.041111 51.524471
55.018326 374.875
55.054649 5048.265137
55.123383 107.986397
55.140057 39.71524
55.320763 14.84884
56.022415 15.40537
56.055988 330.789703
57.034 698.787781
57.07045 512.12323
57.141621 17.33346
58.037975 41.25687
58.066059 134.102402
59.049431 220.288498
60.053101 20.85816
61.027744 121.422302
62.035351 11.72315
65.038864 691.848083
65.115593 17.694441
66.041969 61.917309
67.01683 16.476879
67.054443 7118.079102
67.130478 137.416702
67.15007 54.918709
68.056076 547.418396
69.033737 1666.094971
69.069946 2049.493896
69.148178 44.638981
70.035469 93.8843
70.068504 291.433594
71.049339 2132.50708
71.12767 43.257839
71.146484 13.56041
72.052071 85.70742
73.064857 28.07922
74.058952 15.30326
77.038712 3345.906982
77.119972 68.985397
77.140106 27.479349
78.041344 335.335785
79.054283 4232.756836
79.137718 74.734596
79.156914 31.632401
79.386284 12.41667
80.058174 418.498413
81.033798 124.968697
81.069817 3117.099121
81.154625 60.315948
81.175095 19.191469
82.068398 465.665497
82.150307 12.63415
83.012451 50.421539
83.049149 1556.069946
83.083244 252.695007
83.133995 38.132759
83.154999 14.54253
84.051636 93.211166
84.081238 164.473099
85.027687 70.608543
85.06469 1174.35498
85.151695 23.41013
86.065849 112.276398
87.042587 32.058708
89.043098 20.3612
91.054321 7092.356934
91.142708 138.363007
91.16523 49.49855
91.279739 26.115749
91.861023 11.82988
92.057182 695.831604
93.033463 37.720711
93.069748 5316.991211
93.159264 107.488297
93.181709 37.384369
93.431602 18.79195
93.758217 12.38005
94.040535 47.766781
94.072067 715.382324
95.004189 14.00315
95.049355 673.906982
95.085403 11661.969727
95.176239 270.040314
95.199219 95.189812
95.23027 38.65062
95.292633 34.687832
95.386482 28.04385
95.464233 28.88138
96.04435 1014.528015
96.08773 1165.626953
96.178993 26.36619
96.692436 12.00303
97.029518 233.342606
97.062279 677.866577
97.156097 15.55506
98.030617 19.10047
98.060791 347.234406
98.094093 88.833214
99.043945 2239.316895
99.07634 348.168915
99.137665 49.660431
100.04715 141.946198
100.077667 36.506432
101.058807 165.768906
102.056992 38.95546
103.054024 631.476685
104.059998 132.028793
105.069611 7412.862793
105.16571 144.532593
105.189613 50.40337
105.295715 21.8367
105.427452 21.87595
106.037636 15.1048
106.073166 847.707581
106.495148 13.36341
106.745293 12.00104
107.049248 343.524414
107.08522 6248.701172
107.181747 114.617401
107.206543 41.19492
107.334419 24.26515
108.056313 496.380402
108.086853 933.76062
108.183098 25.110371
109.02832 57.362061
109.064461 2279.356934
109.09903 1223.887939
109.160309 59.265339
109.197273 27.045231
110.06086 1270.008057
110.095894 522.708374
110.156891 35.3246
111.079132 628.486328
112.077827 187.798492
113.061546 99.213463
113.095581 853.708618
113.193924 17.243469
114.052444 13.71176
114.098572 100.698601
115.054184 787.575317
115.155594 15.25171
116.060677 326.524994
117.069107 1354.121948
117.171272 20.66272
117.197647 12.59292
118.073929 241.603104
118.128532 12.75023
119.048622 44.096371
119.085091 2553.906006
119.188225 51.739529
119.213715 18.729799
120.089317 396.227112
121.064316 1520.598999
121.100258 2074.729004
121.202698 40.585461
122.069801 291.217987
122.102684 331.643402
123.079849 3848.768066
123.182236 77.953957
123.209137 30.07445
123.512123 17.39517
124.082893 503.636688
124.183472 15.51038
125.095154 403.724396
126.05439 22.28347
126.09671 61.186779
127.053627 172.1633
128.061478 742.022278
128.166367 16.169901
129.068787 1095.19397
129.17804 23.073669
130.076813 1916.921021
130.181915 36.293049
131.083359 1000.810974
131.189529 19.69943
132.085693 218.479507
133.064453 1188.215942
133.09967 1707.375977
133.169846 40.36058
133.208145 35.542721
134.068649 202.770096
134.10376 289.493713
135.080063 1429.534058
135.115616 2303.570068
135.223495 41.742222
135.653854 11.8606
136.081238 335.285187
136.118896 331.365112
136.929932 22.50174
137.059372 129.693893
137.093628 346.330902
137.126556 169.353302
138.090652 630.748413
138.199448 14.41837
139.102478 127.679703
140.067581 15.51276
140.108337 39.077412
141.087875 755.166382
142.078339 502.015503
143.084732 863.214111
143.197693 14.40948
144.09082 358.3797
145.06572 213.2285
145.100357 3579.664062
145.211868 62.260109
145.239563 20.841299
145.73381 12.9308
146.070496 206.560501
146.103607 652.911377
147.079834 862.255371
147.114075 839.987976
147.195526 26.052179
147.227875 22.216961
148.087769 1488.737061
148.201492 26.312071
149.058899 162.387299
149.094864 906.352783
149.207565 19.291731
150.094681 317.550293
151.074997 1070.389038
151.190262 20.777399
152.078339 205.473801
153.070404 205.691193
153.125488 177.594696
154.075592 116.978401
154.131348 26.44589
155.084732 498.262085
156.091904 384.251007
157.063934 92.602814
157.099792 511.15799
158.071854 378.074188
158.103897 305.018707
159.080002 315.703094
159.114594 422.489105
160.086243 275.101898
160.114609 149.576294
161.095276 796.89447
161.12735 261.344208
161.215103 16.30335
162.100235 176.823196
162.124496 105.071899
163.110962 10544.629883
163.230118 186.791
163.261673 71.558418
163.366714 35.114891
163.560135 31.475651
164.11412 1746.115967
164.233765 37.584999
164.668015 12.74497
165.068771 122.413597
165.12207 208.499496
166.076187 61.60844
166.125137 59.95826
167.086441 151.295807
168.096985 146.701294
169.100754 237.389801
170.107635 308.247803
171.081009 105.003502
171.114578 324.107086
172.0867 182.856506
172.118225 170.065399
173.095108 768.852478
173.12944 386.454498
173.21698 18.31057
174.101852 250.491104
175.110153 420.263
175.145248 325.962585
175.231979 11.8428
176.112137 145.424103
176.146393 77.29052
177.092224 81.852966
177.121826 51.625252
177.154907 34.24081
178.084961 30.927271
178.119186 41.817921
179.103073 190.237503
180.136887 189.858093
181.121262 529.248718
182.116074 137.101395
183.078079 89.92897
183.115891 142.371597
184.083084 22.393129
184.122421 51.928478
185.093323 97.317513
185.131836 276.01889
186.100906 74.495537
186.134247 82.533157
187.110519 147.232101
187.144821 205.967697
188.116806 89.075653
188.147995 55.66214
189.126358 199.921204
190.124527 174.971603
191.105957 1787.858032
191.234512 24.028919
192.1091 343.127686
192.95668 14.10208
193.102829 94.916512
193.154922 54.002399
194.10849 41.335949
194.160843 13.88124
195.114212 133.298798
196.121658 82.250053
197.130096 141.763901
198.129532 62.872478
199.129593 212.226395
200.127975 57.281368
201.125687 105.573402
202.093597 28.94533
202.138092 25.29871
203.141495 381.761505
204.14563 85.966957
205.150345 60.933231
206.108063 28.09697
206.156784 18.54851
207.132874 103.702599
208.132614 1058.348999
208.268829 18.764481
209.134125 303.514893
210.13385 90.67952
211.108795 56.44603
211.149261 89.859512
212.112747 30.20249
212.145889 30.81813
213.125732 115.2798
213.153137 56.810421
214.130402 23.255301
214.163208 14.8252
215.140533 187.877808
216.145386 37.433762
217.120499 42.151249
217.154358 26.37529
219.119293 55.705879
220.126114 20.971121
220.165909 44.903172
221.152023 136.434799
222.105667 20.02219
222.151657 38.53754
223.109131 51.10899
223.150238 50.47694
224.15506 43.43214
225.158829 80.458931
226.142563 57.1255
227.158478 49.8894
228.14592 17.73381
229.15741 50.17403
230.159378 22.38693
231.136688 94.196358
231.169449 73.344437
232.151016 31.042521
233.148712 39.69006
234.14119 37.000561
235.146851 23.791969
236.156097 15.51107
237.128922 55.15918
238.127731 33.739639
238.163925 16.18919
239.17717 114.434303
240.17865 32.68124
241.155777 47.147369
243.172272 81.346977
244.175018 12.9122
245.187897 33.346401
246.192261 13.23142
247.16832 44.2896
248.165375 43.64011
249.164001 62.648991
250.166718 24.63892
251.142181 22.441931
251.17395 16.08559
252.14949 28.67535
253.155121 19.157391
255.172028 31.55055
256.17215 20.875151
257.189545 22.362
259.168762 27.90955
260.195801 29.349291
261.18396 34.824799
265.158905 15.00952
265.19104 24.015421
266.167297 32.114052
267.173859 147.883301
268.174377 40.538368
279.206818 29.916849
283.202545 33.05632
284.20639 13.00751
285.184875 65.130928
286.188477 17.95224
292.181519 15.62476
297.221069 20.41675
301.217773 18.38327
303.190857 16.49341
307.205444 45.48315
308.21579 14.53677
315.22998 18.771099
325.213776 82.843147
326.218384 27.44986
342.242096 24.663639
343.229675 130.966507
344.230164 47.527088
360.253418 56.012779
361.244934 43.387718
378.261444 42.781342
379.26297 16.425791
399.305634 19.768351
