>compound Minoxidil
>formula C9H15N5O 
>ionization [M+H]+
>parentmass 210.135788
#inchi InChI=1S/C9H15N5O/c10-7-6-8(12-9(11)14(7)15)13-4-2-1-3-5-13/h6,11,15H,1-5,10H2
#inchikey ZIMGGGWCDYVHOY
#Ion_Source LC-ESI
#Instrument qTof
#Compound_Source Isolated
#PI Sirenas
#Data_Collector Ed Esquenazi 
#Scan -1
#Precursor_MZ 210.135
#ExactMass 0.0
#Charge 1
#CAS_Number N/A
#Pubmed_ID N/A
#Smiles N/A
#INCHI_AUX N/A
#Library_Class 3
#SpectrumID CCMSLIB00000005605
#IonMode Positive
#UpdateWorkflowName UPDATE-SINGLE-ANNOTATED-BRONZE
#LibraryQualityString Bronze
#TaskID d19310cd93df49b68e9fcbec27720eb5
##Scan# 1
#SpectrumFile Minoxidil.mgf
#LibraryName fda_library.mgf
#MQScore -1
#Organism fda_library
#TIC_Query 0
#RT_Query -1
#MZErrorPPM -1
#SharedPeaks 0
#MassDiff 0
#LibMZ -1
#SpecMZ 210.135
#SpecCharge 0
#internalFilename spec-00000.mgf

>collision 10
100.050598 271.888397
105.042877 99.043137
108.055428 95.604752
109.048439 28.959181
109.49469 10.53471
109.512688 5.437682
109.611893 11.94169
110.05896 8430.431641
110.102951 52.737469
110.117073 10.7521
110.234634 8.290816
110.26049 10.49228
110.278549 6.867188
110.615219 10.39488
110.63372 16.58979
110.834549 4.762302
111.010376 6.072917
111.089615 174.212799
111.182755 9.006559
112.048218 14.33008
113.108994 9.093831
120.05394 51.74197
122.071762 224.631607
122.118561 8.716837
123.090637 51.492771
124.07399 1345.124023
124.144073 10.00194
124.395645 8.190873
124.477615 4.972857
125.046356 239.497894
125.069496 3125.021973
125.106804 84.690483
125.118912 12.14423
125.241371 17.72665
125.340797 4.869565
125.566772 5.571429
126.088188 21.21932
126.978027 6.394976
127.060738 22.823549
127.798637 5.005102
129.099182 16.99432
132.104095 43.930191
133.641602 18.74749
135.060516 13.72312
136.410294 13.18923
136.429703 11.69783
136.440033 14.36487
136.483459 7.864461
136.55835 11.0289
136.570999 8.525579
136.796967 12.29399
136.849686 9.440476
136.867218 9.760816
137.054871 14.12537
137.081955 12358.410156
137.132187 127.625504
137.152542 42.029469
137.161392 7.432915
137.181992 8.143908
137.24556 15.86607
137.252899 37.83746
137.267914 19.784401
137.280655 6.315887
137.308548 15.18367
137.322449 8.725765
137.350464 21.29847
137.3927 35.422482
137.5271 12.59013
137.543091 11.12
137.556137 22.491461
137.591141 7.429442
137.730804 10.64727
138.138519 1.001374
138.204254 9.396629
138.691147 8.179487
138.818207 6.654378
138.999969 17.416019
139.232391 11.60268
140.117508 65.377563
140.957947 16.04705
141.102432 168.105301
141.545898 10.66667
143.022064 8.257143
147.067368 222.635696
148.078629 27.108431
148.838577 12.83117
149.083649 89.800369
149.803833 14.94976
150.079636 2595.958008
150.123337 12.49075
150.241882 5.201255
150.289078 5.065476
150.450699 8.135045
150.655884 6.021978
150.793945 8.587912
150.903763 14.02244
151.085541 2590.996094
151.17128 5.18956
151.241455 7.931319
151.314621 10.20779
151.430069 5.212558
152.416046 8.113722
152.475052 12.4915
162.075043 73.73291
163.090744 13.16955
163.188705 14.11621
163.209961 11.90662
163.28717 22.84329
163.321991 13.07143
163.435745 5.269258
163.518616 7.682603
163.667374 9.899649
163.729584 7.309426
163.877304 10.79592
164.066696 17.18367
164.092758 14039.730469
164.147339 37.465199
164.167435 9.349238
164.210526 5.160714
164.228287 34.143848
164.255707 34.70208
164.279861 40.200821
164.301178 9.590402
164.325546 19.659069
164.343353 11.47987
164.411469 11.57266
164.503387 30.65464
164.518478 7.8743
164.535889 5.208333
164.555725 14.56065
164.611862 4.822876
164.655533 19.98616
164.690765 10.26355
164.745926 5.001984
165.032089 7.590321
165.073532 35.01749
165.167694 11.58929
165.314667 14.7381
165.631226 6.670635
165.660904 7.731092
165.825928 13.02542
166.120682 1162.109985
167.176743 13.20019
168.912979 34.001701
169.984467 5.445488
174.251785 2.937169
175.094894 119.948601
176.105057 2809.586914
178.085968 27.500429
181.107956 687.693115
181.132462 150.994202
181.490753 12.79367
181.721893 13.9958
191.091324 14.25701
191.116211 6.271617
191.7491 8.805861
191.879013 12.28997
191.898376 5.958333
191.928436 9.746241
191.948334 80.834686
191.986908 69.107643
192.008591 52.164539
192.030273 31.44496
192.042114 121.982101
192.078247 45.086189
192.093048 94.283241
192.124069 1388.91394
192.134323 2.315476
192.181213 115.340103
192.200806 88.494492
192.21727 33.863461
192.236786 57.473461
192.258347 76.769699
192.29245 72.360603
192.313187 5.472403
192.325638 36.619259
192.342468 86.573753
192.366333 38.68763
192.38501 11.48502
192.412277 49.71262
192.464127 29.717091
192.522491 31.62962
192.621262 13.75943
192.63327 15.80968
192.672821 17.46323
192.778793 10.93929
192.806442 12.09133
192.822403 104.6297
192.886002 30.90172
192.895996 9.067227
192.926193 10.00097
192.970047 16.148451
193.02092 21.81962
193.06369 31.28425
193.107361 725.692383
193.132431 119766.898438
193.448425 4.001488
193.547592 63.172871
193.559372 86.456177
193.580872 10.99359
193.594681 92.322929
193.63028 75.483353
193.648331 38.589291
193.665146 99.953171
193.693512 120.898399
193.730011 72.714973
193.756531 89.301758
193.776215 31.687321
193.788391 22.99745
193.804871 91.056129
193.834686 47.727299
193.859848 56.531429
193.870148 32.165298
193.889374 64.236267
193.911392 36.76585
193.93045 26.50058
193.953827 86.524689
193.977493 27.222719
193.989258 18.874861
194.00885 52.730759
194.02623 31.394079
194.080017 10.32095
194.134109 834.959778
194.166382 16.887779
194.220016 10.24342
194.235703 7.696429
194.464035 14.02286
195.146133 5.330827
195.23317 13.33929
195.559189 9.223521
195.841263 7.275906
196.065231 5.383086
196.484467 9.432773
196.562515 12.42857
196.969742 14.27736
197.35939 11.12538
199.023483 5.803571
204.229416 11.93481
205.714233 6.344048
206.393967 8.234285
207.986725 1.841837
208.217453 11.96703
208.568069 5.729592
208.765564 12.86596
208.780579 19.18401
208.793152 168.351501
208.816193 15.875
208.839569 86.417473
208.858246 74.528648
208.879242 287.626404
208.89682 206.970901
208.917206 300.796997
208.943024 322.118713
208.960037 132.800003
208.977554 85.917236
208.994675 135.244202
209.008392 23.896339
209.01799 155.796494
209.03537 231.584793
209.058456 178.683502
209.072983 185.597
209.096771 217.594101
209.121109 82.814583
209.136475 109.204002
209.148163 53.65826
209.160248 103.554901
209.174545 46.40572
209.186554 45.03241
209.206116 83.82933
209.2211 36.810299
209.249771 40.158749
209.260529 140.955002
209.286667 32.381989
209.306488 91.832512
209.328949 133.796494
209.349487 66.302071
209.429138 65.154228
209.469086 70.497803
209.482941 20.451469
209.51889 30.76025
209.605667 16.4979
209.691666 67.257797
209.747391 168.346207
209.782654 19.706141
209.82724 22.05093
209.851868 43.598461
209.995483 50.564041
210.042953 103.912003
210.135788 336458.1875
210.572784 43.719471
210.592026 211.924194
210.622406 81.781372
210.660065 184.908707
210.709763 189.8647
210.721497 76.610649
210.731689 172.846802
210.77594 73.222427
210.810333 22.4076
210.822327 51.018002
210.838882 107.324997
210.857315 75.262741
210.897079 56.72768
210.944717 32.034309
210.971603 19.63031
210.987381 87.187103
211.067947 109.276398
211.100494 107.785103
211.137497 1807.07605
211.1828 44.197552
211.194214 26.657949
211.274612 110.815498
211.290085 51.259701
211.36792 83.840233
211.417542 33.410271
211.450653 37.846279
211.47493 51.445469
211.511887 67.605347
211.549805 23.41198
211.636337 15.7196
211.664978 13.54037
211.75058 9.049603
211.762833 18.11586
211.812988 58.458881
211.917465 41.7878
211.933563 14.63075
211.988235 51.848919
212.165741 9.428908
212.198761 22.76219
212.223801 25.41263
212.246857 12.00028
212.313126 12.43061
212.332306 8.458647
212.345932 11.13793
212.379181 7.401429
212.425873 25.188801
212.515305 10.20357
212.529984 10.09332
212.572083 15.84573
212.597198 15.79121
212.749191 16.71537
212.870728 8.588744
212.956924 4.731203
213.137512 15.42878
213.154495 9.594286
213.460449 6.366459
213.490326 5.188776
214.228012 5.144345
214.437897 11.1361
214.538651 8.730612
214.650833 10.2967
215.257797 7.513606
215.898483 5.481203
217.155655 11.60445
228.638412 11.00128
397.152008 5.365079
470.197968 11.76688
784.357483 36.43478
1108.529053 12.14484
