>compound MLS001049098-01!7-[(2E)-3,7-dimethylocta-2,6-dienoxy]chromen-2-one
>formula C19H22O3
>ionization [M+H]+
>parentmass 299.165
#inchi InChI=1S/C19H22O3/c1-14(2)5-4-6-15(3)11-12-21-17-9-7-16-8-10-19(20)22-18(16)13-17/h5,7-11,13H,4,6,12H2,1-3H3/b15-11+
#inchikey RSDDHGSKLOSQFK
#Ion_Source LC-ESI
#Instrument qTof
#Compound_Source NIH Natural Product Library
#PI Dorrestein
#Data_Collector VVP/LMS
#Scan -1
#Precursor_MZ 299.165
#ExactMass 298.157
#Charge 1
#CAS_Number N/A
#Pubmed_ID N/A
#Smiles CC(=CCC/C(=C/COc1ccc2ccc(=O)oc2c1)/C)C
#INCHI_AUX N/A
#Library_Class 1
#SpectrumID CCMSLIB00000080287
#IonMode Positive
#UpdateWorkflowName UPDATE-SINGLE-ANNOTATED-GOLD
#LibraryQualityString Gold
#TaskID b1d8e8f6646f4e71acdff9ca3d919d08
##Scan# 2820
#SpectrumFile p2-F06_GF6_01_18042.mzXML
#LibraryName NIH_Natural_Products_Library.mgf
#MQScore -1
#Organism NIH_Natural_Products_Library
#TIC_Query 0
#RT_Query -1
#MZErrorPPM -1
#SharedPeaks 0
#MassDiff 0
#LibMZ -1
#SpecMZ 299.165
#SpecCharge 0
#internalFilename spec-00000.mgf

>collision 10
95.044403 116.0
95.084404 540.0
95.411491 56.0
96.153641 136.0
96.28054 160.0
96.333282 120.0
96.384079 172.0
96.446617 160.0
96.749825 148.0
96.812485 104.0
96.839905 112.0
97.457855 172.0
97.971359 108.0
98.05806 156.0
98.38353 160.0
98.725365 120.0
98.806465 208.0
98.980637 148.0
99.317551 132.0
99.498138 148.0
99.790192 144.0
99.810081 156.0
100.301826 132.0
100.487297 160.0
100.994705 152.0
101.11676 144.0
101.54351 100.0
101.872704 64.0
102.021408 144.0
102.301041 160.0
102.389839 200.0
102.425896 52.0
102.714142 140.0
102.756508 184.0
102.990685 172.0
103.122017 152.0
103.557022 144.0
103.715065 232.0
103.812386 132.0
103.850922 168.0
104.206177 68.0
104.250877 168.0
104.636917 244.0
104.757507 48.0
105.383842 124.0
105.406319 44.0
105.614845 156.0
106.020233 136.0
106.120682 212.0
106.559219 216.0
106.613335 192.0
106.668823 196.0
106.80043 212.0
106.841568 148.0
106.90947 152.0
106.95269 120.0
106.971214 152.0
107.003471 48.0
107.049332 13944.0
107.111244 84.0
107.143173 136.0
107.161476 188.0
107.234703 48.0
107.27816 100.0
107.300835 32.0
107.344139 92.0
107.469963 56.0
107.496788 156.0
107.531876 72.0
107.647484 36.0
107.722908 208.0
107.874756 40.0
107.965736 76.0
107.984344 88.0
108.053268 1336.0
108.090508 216.0
108.226471 52.0
108.383896 144.0
108.476837 184.0
108.684555 212.0
108.728134 144.0
108.839767 160.0
108.910843 96.0
108.933693 112.0
109.058365 164.0
109.110336 92.0
109.191437 216.0
109.243431 80.0
109.730766 144.0
110.440781 180.0
110.47007 200.0
110.50563 80.0
111.023026 184.0
111.17408 292.0
111.300026 144.0
111.680412 168.0
111.998245 260.0
112.044594 64.0
112.341843 208.0
112.438904 156.0
113.27198 184.0
113.371559 140.0
113.560249 48.0
113.831902 152.0
113.961472 156.0
114.050728 216.0
114.22509 88.0
114.278275 168.0
114.335732 208.0
114.388947 132.0
114.987892 120.0
115.056198 180.0
115.265518 148.0
115.669739 96.0
115.911751 68.0
116.061798 156.0
116.278465 180.0
116.448082 92.0
116.58773 156.0
116.673706 124.0
117.065315 156.0
117.209641 76.0
117.887222 96.0
118.129387 200.0
118.410774 180.0
118.536423 120.0
118.757553 140.0
118.8899 52.0
118.920288 168.0
119.048737 4512.0
119.103897 64.0
119.154808 48.0
119.19175 80.0
119.24173 36.0
119.2939 208.0
119.441772 32.0
119.567963 168.0
119.997093 196.0
120.053757 564.0
120.099586 96.0
120.866409 60.0
120.971466 84.0
121.052475 132.0
121.822334 240.0
122.033318 172.0
122.618866 104.0
122.651932 164.0
122.709251 240.0
122.894516 156.0
123.307472 148.0
123.603806 96.0
125.743912 128.0
126.056572 140.0
126.934074 148.0
127.097824 152.0
127.533501 172.0
127.796616 116.0
127.873131 156.0
127.927155 256.0
128.339447 192.0
129.064255 192.0
129.471573 228.0
129.695877 176.0
130.063339 72.0
130.476791 140.0
130.852188 172.0
133.074539 232.0
133.095215 68.0
133.734314 104.0
133.833313 172.0
134.326508 180.0
134.377258 36.0
134.984741 156.0
135.000931 184.0
135.043823 1364.0
135.380463 56.0
135.465225 188.0
135.809219 48.0
135.892731 136.0
136.041107 168.0
136.48967 200.0
136.672089 220.0
136.743698 184.0
137.055298 204.0
137.130966 404.0
137.500717 132.0
137.862701 56.0
138.075439 240.0
138.138596 180.0
138.466293 184.0
139.320114 148.0
139.573944 284.0
140.211914 96.0
140.367493 164.0
141.014359 168.0
141.719559 80.0
141.757477 248.0
142.628494 136.0
142.657028 168.0
143.316284 224.0
144.127548 144.0
144.696793 232.0
144.783005 212.0
144.900375 128.0
144.969864 144.0
145.020187 176.0
145.382339 160.0
145.454346 156.0
145.526367 84.0
145.562378 132.0
145.732925 136.0
146.372757 128.0
146.56546 148.0
146.6474 144.0
146.963303 108.0
147.113464 164.0
148.647446 180.0
149.050537 160.0
149.446884 216.0
150.512054 140.0
151.257721 80.0
151.801636 192.0
151.885025 240.0
152.204071 160.0
152.872696 236.0
153.227264 212.0
153.313507 152.0
153.498398 164.0
154.328064 160.0
154.535828 172.0
155.011246 128.0
155.13269 152.0
155.194672 140.0
155.872314 120.0
157.094788 84.0
157.429245 176.0
157.756561 120.0
157.881577 180.0
158.189331 120.0
158.23941 64.0
159.045105 192.0
160.508331 164.0
161.44519 124.0
161.627335 120.0
161.64505 120.0
161.824753 116.0
161.931122 148.0
161.966583 200.0
162.036667 144.0
162.113525 56.0
162.26561 220.0
162.293503 124.0
162.382263 196.0
162.460892 64.0
162.596985 104.0
162.625824 240.0
162.648682 100.0
162.706787 108.0
162.75531 168.0
162.797577 244.0
162.874664 132.0
162.897522 212.0
162.928192 180.0
162.958496 132.0
162.991592 184.0
163.039154 51144.0
163.102676 164.0
163.150803 72.0
163.177078 44.0
163.199966 28.0
163.225388 96.0
163.246094 112.0
163.276245 68.0
163.319931 140.0
163.425827 80.0
163.452042 60.0
163.480652 128.0
163.500137 68.0
163.569839 112.0
163.62149 84.0
163.708893 80.0
163.747086 60.0
163.770004 56.0
163.828766 60.0
163.863602 136.0
163.886536 80.0
163.973846 72.0
164.004425 180.0
164.041916 4488.0
164.089478 44.0
164.105637 80.0
164.209808 160.0
164.285477 56.0
164.331741 68.0
164.40004 68.0
164.425262 44.0
164.454315 52.0
164.496735 56.0
164.59375 40.0
164.644821 56.0
164.701019 100.0
164.769989 40.0
164.846634 52.0
164.877304 108.0
164.902863 76.0
164.96199 152.0
165.001999 128.0
165.044464 476.0
165.081818 148.0
165.132614 72.0
165.227615 92.0
165.253204 124.0
165.322296 72.0
165.364044 140.0
165.442596 40.0
165.675644 128.0
166.049881 204.0
166.16275 44.0
166.203796 64.0
166.221771 36.0
166.414276 68.0
166.537537 64.0
166.619751 72.0
167.775284 60.0
170.202194 84.0
171.265869 92.0
171.534256 80.0
172.189178 52.0
172.249252 104.0
172.827026 44.0
173.772903 52.0
174.776596 40.0
174.934509 84.0
175.035736 260.0
177.290558 108.0
178.913483 148.0
179.467651 60.0
180.113495 92.0
187.032867 160.0
187.681259 76.0
189.063492 156.0
198.979416 52.0
203.071533 188.0
207.112946 156.0
207.843994 128.0
209.081802 76.0
209.589386 60.0
214.30661 104.0
215.070679 196.0
220.69072 48.0
222.094437 164.0
239.117004 124.0
243.094437 76.0
245.942169 92.0
259.575867 140.0
278.418091 64.0
279.129242 108.0
286.812897 100.0
286.883698 124.0
305.397461 80.0
312.608124 80.0
315.829254 116.0
324.859497 96.0
373.863129 52.0
395.864777 112.0
477.38092 80.0
477.598389 20.0
518.725159 132.0
537.874023 100.0
570.423706 80.0
632.531433 20.0
716.248657 44.0
717.309082 120.0
737.854126 164.0
747.721069 64.0
769.599365 64.0
779.897888 176.0
786.420227 108.0
833.003235 128.0
839.42627 184.0
872.411133 180.0
895.577942 140.0
898.146912 168.0
914.763245 168.0
917.956482 176.0
920.472778 144.0
935.898621 272.0
953.614868 96.0
961.109436 116.0
963.931274 120.0
971.175415 164.0
977.03241 76.0
979.086487 208.0
998.613342 220.0
1003.512573 116.0
1013.96167 60.0
1015.438843 164.0
1019.355774 248.0
1023.496765 136.0
1023.846985 152.0
1024.407471 140.0
1034.305176 128.0
1034.362793 64.0
1038.123535 164.0
1038.970215 60.0
1041.92334 248.0
1047.874512 128.0
1050.246704 180.0
1059.691406 216.0
1063.374634 128.0
1066.674194 148.0
1067.526001 176.0
1071.37915 208.0
1071.541992 156.0
1073.993042 168.0
1079.054077 220.0
1080.630249 192.0
1084.90686 248.0
1085.864136 224.0
1088.574463 180.0
1090.295654 68.0
1090.394287 148.0
1093.998779 184.0
1102.99646 196.0
1111.314209 148.0
1112.595215 192.0
1112.827515 80.0
1117.726196 124.0
1124.189941 172.0
1127.168091 204.0
1132.03125 68.0
1139.362305 204.0
1147.836182 56.0
1149.24585 224.0
1149.401001 128.0
1151.432983 144.0
1156.266846 152.0
1156.930176 184.0
1157.363525 228.0
1158.298096 144.0
1158.609741 188.0
1159.409302 164.0
1166.950684 140.0
1167.311035 200.0
1168.501343 180.0
1168.637451 128.0
1172.668823 128.0
1174.680298 112.0
1180.075439 168.0
1182.182129 200.0
1184.831909 148.0
1188.534302 120.0
1202.041626 56.0
1203.739746 56.0
1205.273315 164.0
1214.661011 184.0
1217.228882 180.0
1219.417236 48.0
1228.692383 200.0
1230.863037 144.0
1235.734741 132.0
1238.54895 116.0
1240.146362 68.0
1244.060547 120.0
1245.120728 144.0
1246.139282 96.0
1247.045776 96.0
1250.456909 176.0
1253.048218 100.0
1253.146851 180.0
1253.823364 140.0
1258.563721 160.0
1260.852417 108.0
1265.351196 80.0
1269.02124 116.0
1269.737427 208.0
1271.078125 148.0
1275.55957 172.0
1278.845703 168.0
1279.016479 216.0
1288.243774 184.0
1292.991455 156.0
1293.563965 208.0
1296.3573 108.0
1297.783691 220.0
1301.737305 160.0
1304.215942 176.0
1305.157715 120.0
1312.422729 196.0
1313.151123 172.0
1315.308472 180.0
1321.168945 136.0
1321.711548 160.0
1322.912964 124.0
1325.223267 156.0
1339.447632 180.0
1339.622437 168.0
1345.208252 76.0
1348.80957 192.0
1349.153076 112.0
1350.184082 208.0
1352.356934 140.0
1354.553589 196.0
1355.733276 204.0
1361.785767 156.0
1362.505615 136.0
1362.623169 48.0
1363.850464 200.0
1366.505127 240.0
1366.556641 120.0
1366.689087 40.0
1371.247314 140.0
1372.434204 176.0
1374.462646 208.0
1375.171021 152.0
1375.274414 312.0
1375.953491 236.0
1378.051025 224.0
1380.859985 196.0
1385.071533 192.0
1385.167725 112.0
1385.293701 132.0
1387.161133 124.0
1392.40686 44.0
1392.815308 124.0
1393.439331 196.0
1395.029785 236.0
1396.122681 160.0
1402.093262 132.0
1406.777344 152.0
1407.061035 136.0
1411.37207 52.0
1412.53125 200.0
1413.391602 180.0
1414.911011 140.0
1415.786987 160.0
1417.090332 60.0
1420.426392 120.0
1420.86145 144.0
1421.829468 192.0
1425.449097 172.0
1425.599365 192.0
1427.395996 184.0
1429.14856 148.0
1433.131592 180.0
1435.030884 144.0
1435.558716 160.0
1436.441162 104.0
1441.151978 80.0
1445.97644 152.0
1447.263428 176.0
1450.058594 124.0
1450.967407 208.0
1451.180542 228.0
1451.370117 200.0
1452.196655 200.0
1452.424194 116.0
1453.015991 148.0
1453.926514 236.0
1454.366699 44.0
1457.640991 112.0
1462.301636 216.0
1462.689819 128.0
1466.932617 128.0
1467.649292 156.0
1471.174072 132.0
1474.955322 80.0
1476.178467 152.0
1479.77478 120.0
1480.977051 192.0
1482.440308 124.0
1482.838867 116.0
1486.228271 180.0
1487.026367 168.0
1487.694214 44.0
1489.698486 212.0
1490.013428 172.0
1493.103394 148.0
1495.203735 152.0
1496.558472 248.0
1497.590454 152.0
1498.491699 148.0
1502.21521 184.0
1502.554688 64.0
1503.46521 32.0
