>compound Felodipine
>formula C18H19Cl2NO4 
>ionization [M+H]+
>parentmass 384.078
#inchi InChI=1S/C18H19Cl2NO4/c1-5-25-18(23)14-10(3)21-9(2)13(17(22)24-4)15(14)11-7-6-8-12(19)16(11)20/h6-8,15,21H,5H2,1-4H3
#inchikey RZTAMFZIAATZDJ
#Ion_Source LC-ESI
#Instrument qTof
#Compound_Source Isolated
#PI Sirenas
#Data_Collector Ed Esquenazi 
#Scan -1
#Precursor_MZ 384.078
#ExactMass 0.0
#Charge 1
#CAS_Number N/A
#Pubmed_ID N/A
#Smiles N/A
#INCHI_AUX N/A
#Library_Class 3
#SpectrumID CCMSLIB00000004775
#IonMode Positive
#UpdateWorkflowName UPDATE-SINGLE-ANNOTATED-BRONZE
#LibraryQualityString Bronze
#TaskID d19310cd93df49b68e9fcbec27720eb5
##Scan# 3
#SpectrumFile Felodipine.mgf
#LibraryName fda_library.mgf
#MQScore -1
#Organism fda_library
#TIC_Query 0
#RT_Query -1
#MZErrorPPM -1
#SharedPeaks 0
#MassDiff 0
#LibMZ -1
#SpecMZ 384.078
#SpecCharge 0
#internalFilename spec-00000.mgf

>collision 10
100.040253 51.002548
100.075584 32.51442
101.038635 34.853359
101.478813 5.016304
104.048729 82.036072
104.364731 3.041667
105.05732 331.996002
105.67691 4.734848
106.065269 368.269806
106.121635 3.35
106.15033 8.66821
106.347557 6.666667
106.509064 4.002778
106.527367 4.157052
107.073479 329.242706
108.043114 109.146004
108.144836 7.541667
108.224915 10.28004
108.297562 18.27619
108.420433 12.7298
108.471161 11.32003
108.983284 32.033401
110.0233 291.281891
110.060295 2.016667
110.141701 5.782407
110.363571 5.573412
110.931129 3.115741
110.997353 31.66231
112.03904 62.67046
113.060524 200.803497
113.106659 2.333333
113.542015 4.054824
114.051201 23.375
115.054459 39.841179
118.025818 36.32328
121.053146 124.722801
121.116997 3.686404
121.638252 9.129273
122.058296 87.280029
123.063995 57.374489
124.074631 78.35112
125.010689 11.21338
125.536552 2.671296
126.055183 391.524994
126.102379 2.333333
126.146255 34.086472
126.278236 2.722222
127.710381 3.266667
128.032227 305.223389
128.307404 2.672619
129.072693 60.353199
132.04274 114.451401
132.29837 12.19947
133.050171 119.760597
133.425171 5.391026
134.058807 460.778503
134.093231 21.116671
134.125244 6.564103
134.213959 6.666667
134.427643 2.680556
134.782837 6.520061
134.887863 16.391199
135.469833 13.04167
135.664734 14.33406
136.007446 46.536339
136.035034 32.816898
136.249146 6.208333
137.022034 49.160069
138.009613 65.340874
138.053665 17.693451
138.992813 56.6465
139.05426 164.3246
139.188293 8.727273
139.593155 8.757576
139.878677 14.44921
140.070694 802.575378
140.12117 11.58854
140.195694 8.573529
140.227768 2.722222
140.237915 10.45581
140.323395 1.777778
140.438828 6.880952
141.515228 2.520833
141.690781 5.708333
142.049377 194.771698
142.085159 26.51557
142.395599 5.107456
142.682297 17.891171
143.069031 29.07576
143.894043 11.0744
144.960968 152.518494
147.074661 2.0
149.012405 61.524281
149.045181 82.594383
149.384064 17.22304
150.055222 561.841614
150.085403 13.3344
150.503372 4.351191
150.669083 3.926282
151.061111 398.904785
151.097931 4.816667
151.214981 3.458333
151.37529 1.666667
151.975113 8.802928
152.03215 49.551281
152.06366 221.519699
152.090576 8.394608
152.127548 4.35
152.225128 13.7219
152.444611 11.76961
155.082336 80.877983
155.173264 3.416667
156.064362 27.884809
156.328247 18.10965
158.97229 52.247009
159.226395 4.166667
159.243881 23.000441
159.402542 17.08884
159.643356 8.20119
160.008514 62.342709
160.038696 105.000298
161.015167 195.171097
161.073196 16.51281
161.278275 8.727273
161.340088 7.135
161.631912 7.686274
162.02327 421.104309
162.171967 6.095238
162.313751 3.0
163.044952 3.816667
164.037292 25.17045
164.047653 142.841293
164.069046 176.486694
164.113998 5.906746
164.283203 14.00126
164.448212 9.642095
164.872543 4.898148
165.071487 286.817688
165.122528 2.333333
165.194061 10.00417
165.216919 10.59572
165.270081 10.38313
165.301392 2.367424
165.399796 9.823148
165.784851 9.32545
165.969604 2.520833
166.049194 9.469697
166.085709 783.101013
166.120911 12.17754
166.156799 2.35
166.167038 5.75
166.309296 14.39461
166.412506 17.213671
166.808167 14.04847
167.042786 16.242649
167.070007 66.263573
168.061722 183.074493
168.108673 3.337963
168.417511 15.1405
168.763382 14.34041
169.1707 12.32545
169.999435 11.40517
170.976959 316.736603
171.212677 1.6875
171.499664 14.74713
171.536026 17.446289
172.089661 63.48299
172.16539 11.67045
172.954865 1172.811035
172.975937 41.785259
173.015579 280.06781
173.052124 8.934524
173.07431 18.89061
173.132385 29.920799
173.244888 3.341666
173.280716 5.814815
173.530319 8.881667
173.59726 12.8648
173.78511 3.413462
173.830948 3.335784
173.927292 4.019737
174.023453 299.697693
174.31749 6.334677
174.381226 10.05482
174.790924 4.09375
174.971191 100.642403
175.108398 5.666667
175.14061 5.688726
175.195877 13.67402
175.499924 4.0
176.036423 453.544586
176.108658 3.041667
176.327103 18.59631
176.515305 8.724999
177.315826 15.49389
178.0495 767.776611
178.104218 4.340278
178.129395 8.132247
178.291275 2.893518
178.34108 1.6875
178.488052 9.735
178.554916 2.761364
178.660965 11.33333
178.947357 11.3952
179.025406 39.524681
179.072601 244.234299
179.089539 38.333328
179.229553 16.438709
179.290756 13.72083
179.998703 20.408581
180.079727 754.635925
180.097595 94.037041
180.138702 16.192869
180.162262 4.75
180.253784 6.136111
180.322128 12.15
180.395798 6.737069
180.535995 4.336538
181.070358 20.667589
181.321884 14.60093
181.547073 2.336539
182.071854 13.40653
182.09288 31.22963
182.975601 247.737595
183.158432 8.005555
183.262024 10.03125
183.695663 13.17729
184.07338 41.136608
186.019989 82.656357
186.807343 9.306159
187.02832 67.546997
187.658508 4.047619
187.98111 4.852273
187.999023 6.893518
188.038773 81.65638
188.986069 28.327869
189.010925 203.247894
189.723007 14.3867
189.756454 3.367424
190.064911 102.089699
190.323227 9.185345
192.033142 50.832001
192.06311 68.883072
192.076584 48.677189
192.947052 7.34248
193.102234 43.946678
193.906403 2.893518
194.081818 22.377729
194.648117 17.70513
194.928741 6.336538
194.974762 492.295807
195.069733 15.48981
195.104095 85.048523
195.248245 10.00694
195.334335 2.166667
195.414581 6.755556
195.489334 9.775641
195.502121 8.411765
196.042435 4.340278
196.956589 42.21172
196.990097 364.091705
197.093872 37.254749
197.144791 3.413462
197.507843 5.630952
197.654358 4.349638
198.971939 271.182098
199.000137 35.658539
199.033844 72.429253
199.16243 2.14881
199.938889 2.375
199.994583 20.16667
200.036346 593.91803
200.072144 5.689815
200.200928 4.416667
200.235428 8.416667
200.350479 5.054487
200.464737 9.708333
200.583237 3.341666
200.845428 15.37745
200.919128 7.125
201.009308 68.600197
201.087051 7.714285
201.462601 8.818548
202.017181 1219.962036
202.079514 8.1149
202.128967 1.6875
202.163605 16.965309
202.203156 3.047619
202.332901 8.166667
202.435806 6.564103
202.488998 4.483333
202.513947 5.891666
203.218552 4.681667
204.216599 4.666667
204.564972 17.563971
205.005249 19.378151
206.007278 27.8624
206.057251 58.233761
206.164795 18.678761
206.329025 9.445988
206.652405 9.916667
206.980927 37.06282
207.066803 314.087402
207.126251 6.001984
207.212708 36.972858
207.310562 8.176471
207.400726 8.122549
207.515976 12.03125
207.801697 6.755435
207.836838 10.44537
207.881973 12.06061
208.004883 3.25
208.07338 297.4953
208.31366 39.110291
208.373779 9.947369
208.459259 7.242816
208.50444 2.336539
208.747452 21.233589
208.852905 8.401667
208.990692 2250.428955
209.050278 22.45826
209.082748 230.7724
209.1371 14.89352
209.176559 22.01667
209.193069 28.72327
209.237747 19.177299
209.289627 62.970402
209.353943 5.680555
209.398254 2.444444
209.429733 7.030303
209.458038 13.85688
209.616074 10.08232
209.636276 30.091101
209.762161 11.07018
209.812546 16.0098
209.827667 4.061275
209.888138 14.05192
209.997131 204.411697
210.077148 1192.366943
210.276413 15.00082
210.463104 6.668333
210.478378 11.92628
210.655075 8.242816
210.695404 3.802778
210.772629 11.60556
211.019165 14.52
211.248642 11.95833
212.002594 71.175484
212.882462 8.469594
213.349701 11.04344
214.04039 681.438293
214.107346 5.120098
214.280609 3.010417
214.428329 9.66793
214.484283 6.408333
214.810196 7.647436
214.903229 14.74557
215.024628 417.746002
215.049698 1373.417969
215.114059 2.583333
215.132736 13.49662
215.249283 4.349638
215.274811 5.480072
215.300415 38.85788
215.376907 3.727941
215.463715 12.16447
215.555634 16.683201
215.59906 6.5
215.714005 3.675
215.737869 3.408334
215.887756 7.162634
216.117844 13.13807
216.489273 6.387821
216.661835 28.697479
216.702209 15.86012
217.006409 80.108582
217.064896 51.01704
217.091782 4.115741
217.423965 9.920635
217.476074 3.555556
217.778061 21.11594
218.042343 47.122662
218.061783 65.404869
218.410065 16.00952
218.973648 24.463711
218.986191 3.011905
219.015411 63.137131
220.994293 70.782883
221.030502 25.991871
221.666229 7.380208
221.868591 2.449074
221.966949 15.88955
222.970352 1447.36499
223.007874 248.550903
223.046127 3.66886
223.058838 43.416672
223.083176 25.055201
223.124069 7.486111
223.156235 35.208141
223.168518 9.833333
223.191452 12.52778
223.20462 3.166667
223.302689 5.265351
223.383118 1.741667
223.461975 2.0
223.636215 4.75
223.72731 6.675926
223.761261 4.694444
223.965958 3.027778
223.977524 68.536888
224.038071 34.975208
224.070465 87.440681
224.123001 6.37037
224.206253 11.67432
224.315674 4.8
224.660172 11.26667
224.948456 196.677795
224.987106 96.56604
225.034561 22.008169
225.075607 60.272259
225.211029 6.816667
225.250626 14.38043
225.564835 14.01667
226.018219 41.852009
226.039032 105.783401
226.697952 5.522727
227.004593 140.018005
227.047455 160.327698
227.363617 9.34248
227.386108 2.777778
227.730957 5.711957
227.994537 33.848579
228.03009 251.847794
228.219559 8.435897
228.261505 4.0
228.387665 10.42014
228.403442 4.033333
229.026367 376.838989
229.061447 32.834721
229.140244 7.291667
229.435135 8.449713
229.582672 6.449713
229.720047 8.388441
229.862305 11.82315
230.012512 144.085403
230.068787 99.699203
230.19632 11.42672
230.384598 4.394608
230.630661 5.801667
230.803696 12.48752
230.97374 7.708333
231.103302 7.719017
232.029816 24.6042
232.051605 35.034981
232.279083 34.365891
232.650162 19.333941
232.766907 4.061275
232.989548 309.423889
233.616928 8.737069
233.679626 19.057619
233.80246 15.5873
233.990646 133.092407
234.095871 37.011971
234.723434 4.791667
234.921478 13.00102
234.97049 143.383698
235.001968 502.842194
235.063019 108.863098
235.172226 10.36687
235.401627 16.33333
235.532532 7.613636
235.589264 12.07419
235.617569 13.00463
235.866211 14.18391
236.488266 29.03244
236.850067 7.068452
236.941666 2.449074
236.985931 649.714417
237.012497 251.977905
237.032715 2.449074
237.11525 2.449074
237.161804 8.888888
237.196747 13.45581
237.406967 24.736111
237.573669 4.010417
237.600479 4.340909
237.81456 10.24282
238.045532 30.39216
238.105469 58.348461
238.239044 10.68981
238.432419 6.880952
238.497849 21.42911
238.824692 6.702587
238.926849 15.2245
238.965988 70.524681
239.001144 47.620861
239.087631 8.041667
239.106155 37.555901
239.540207 17.085449
239.996918 448.184509
240.392059 11.6886
240.418701 13.42803
240.478058 9.450582
240.569489 19.18235
240.655029 13.42188
240.704666 2.336539
240.73465 12.75268
240.777206 9.631173
240.87027 26.507469
240.890305 10.27222
240.981049 123.329102
241.024628 145.677795
241.096909 6.125
241.255539 11.66764
241.707733 4.266667
241.738708 36.840271
241.784698 13.99212
241.81633 5.747549
241.904358 6.173611
242.008545 4.720238
242.03627 2734.131104
242.099396 4.136111
242.126282 3.0
242.169601 4.668478
242.186066 14.00641
242.304977 33.67873
242.323395 7.625
242.34288 3.727941
242.364548 39.671841
242.377182 21.21814
242.413025 18.29167
242.429535 7.692308
242.494537 7.33477
242.521759 17.07716
242.554214 11.40833
242.580215 21.815479
242.605011 23.73493
242.6409 2.761364
242.677536 36.851551
242.742844 19.658331
242.863068 5.422101
242.890274 13.49135
242.928604 12.27229
242.96637 35.405182
243.044464 6038.832031
243.1091 55.058922
243.12886 4.380952
243.161728 7.678572
243.221024 9.573718
243.269852 5.005952
243.318787 13.24242
243.412552 30.633381
243.448944 15.79509
243.504562 32.36277
243.520157 7.027778
243.559082 23.067539
243.703995 10.84314
243.79892 61.923229
243.860199 22.66964
244.12944 2.893518
244.149673 10.4
244.238434 17.38538
244.269974 9.556818
244.314377 9.426724
244.450058 19.84301
244.639145 18.39558
244.710983 10.6803
244.996643 62.64481
245.009262 5.041667
245.02388 97.897438
245.059418 184.587296
245.150894 16.002251
245.345718 8.966666
245.580048 2.520833
246.007217 221.693802
246.031357 313.792786
246.094147 2.4
246.217743 13.64651
246.286133 12.525
246.403519 17.066879
246.584412 2.14881
246.974243 72.182037
247.122711 27.64341
247.1595 6.070402
247.31424 6.160088
247.536377 11.82996
248.040955 9.88469
248.16687 17.156601
248.424515 3.342592
248.506851 21.339291
248.572586 13.00689
248.843033 3.714286
248.912827 5.522727
248.943344 61.0611
248.985443 13.62976
249.014801 106.5327
249.14888 11.04545
249.262115 9.694445
249.417969 6.364899
249.912659 17.667549
250.017822 2109.260986
250.088547 1.720238
250.102615 6.357639
250.226303 10.32143
250.276184 24.627911
250.31398 8.121212
250.33989 7.888889
250.457962 16.18561
250.511856 26.49074
250.562607 21.862009
250.578644 4.481482
250.633682 4.8
250.699768 4.083333
250.804428 8.411765
250.852661 43.084091
250.866119 15.13782
251.168152 9.088889
251.577179 12.07419
251.598419 11.76947
251.994019 19.34914
252.032104 512.191223
252.056931 156.676407
252.773666 5.259615
252.844315 11.13889
252.980209 8.755208
253.074371 209.910706
253.155655 29.86928
253.251633 11.63516
253.275284 18.708651
253.306427 12.67262
253.675232 9.325893
253.722412 15.63712
254.080307 398.686615
254.14328 3.722222
254.998657 51.076271
255.017044 34.966099
255.047989 8.344697
255.53714 5.729167
255.887619 9.240384
256.029633 19.88172
256.053131 15.3344
257.526031 12.67083
258.003387 47.698269
258.064667 42.021721
258.433167 19.339279
258.448944 15.3947
259.039459 336.455414
259.113098 2.111111
259.254547 29.832211
259.741791 7.00926
259.984497 18.773939
260.00412 186.228104
260.021912 74.164993
260.048523 592.576172
260.0896 2.0
260.112061 4.675
260.435211 13.98732
260.577667 6.678572
260.986786 251.309006
261.055481 1.675
261.606628 9.20119
261.769653 17.717951
261.826141 2.722222
261.986389 157.732498
262.019318 386.396301
262.068481 4.034091
262.096802 30.76873
262.293579 7.016304
262.349915 5.008333
262.418152 18.823589
262.63739 9.033603
262.991302 212.208099
263.026062 481.138611
263.06604 2.0
263.229065 5.008333
263.260742 2.5
263.294342 18.872749
263.314362 4.71627
263.461243 9.681666
263.817139 7.969086
263.996002 938.568726
264.054596 2.008333
264.269043 16.597219
264.295013 25.56546
264.336121 5.208333
264.523834 10.74679
264.621124 2.013889
264.927002 4.669445
264.978699 107.357002
265.007019 535.958374
265.040161 32.2663
265.067322 4.028846
265.104797 5.333333
265.129272 9.068182
265.217407 4.916667
265.323486 3.013889
265.425079 18.53289
265.747467 15.35648
266.047394 186.803406
266.19873 11.94697
266.530609 10.03571
266.990845 7.2
267.087677 76.182426
267.775879 9.019608
267.940979 11.00309
268.09494 499.589386
268.419556 9.021258
268.556366 5.041667
268.795868 6.366936
269.023224 22.775
269.674927 4.017857
269.983521 20.96517
270.032104 2626.958984
270.104767 13.23909
270.172302 32.715279
270.18811 6.037281
270.235138 4.481482
270.304199 6.673611
270.335571 13.68314
270.355438 11.42222
270.378326 13.72429
270.423859 7.130208
270.543945 18.450001
270.578339 10.68333
270.716736 8.136905
271.015442 16.280701
271.04953 45.146118
271.220093 18.98177
271.500458 11.75512
272.010834 75.024643
272.079285 33.508518
272.108398 3.034091
272.419464 3.888889
272.671265 4.166667
273.397491 4.761905
274.024536 103.065903
274.070862 81.702766
274.955536 8.148149
275.060791 24.14369
275.998871 352.603607
276.04007 53.337799
276.07547 153.0177
276.122986 20.461941
276.187073 51.52042
276.265167 7.871031
276.315948 10.64651
276.374725 40.254169
276.403595 17.12855
276.419891 12.13333
276.499878 35.872391
276.599365 20.321541
276.660858 8.055181
277.023743 89.595306
277.136353 34.16003
277.245514 8.081667
277.28476 7.113095
277.767853 12.37306
277.953583 24.961241
278.01358 7309.934082
278.086151 12.35088
278.114838 92.875969
278.1604 39.080589
278.21463 15.10887
278.251495 60.856171
278.278656 24.93799
278.306244 15.86613
278.324066 9.42803
278.347626 25.939461
278.369995 12.40895
278.388214 30.920839
278.405334 8.012931
278.431732 33.59832
278.46228 61.615898
278.562439 71.775436
278.633453 6.12037
278.701447 12.19753
278.716187 32.01157
278.986145 4.453432
279.18338 12.02437
279.480286 6.686403
279.817657 5.444445
279.995117 70.131027
280.030212 373.049194
280.073792 9.03592
280.107178 6.975678
280.341644 13.21635
280.387787 21.433331
280.405701 26.269569
280.783936 10.49359
280.98941 51.312611
282.010895 41.41497
282.109039 24.35833
282.126984 9.442983
282.215088 5.633333
282.548004 19.88002
282.729065 4.694444
282.9935 38.311989
284.630463 4.0
286.020813 23.027781
286.269409 18.0471
286.285126 11.40833
286.43338 24.856979
286.720795 3.333333
286.820953 24.826719
287.030365 180.1716
287.075836 36.619438
287.136261 41.295891
287.165283 19.152269
287.201935 27.52664
287.491455 5.375
287.547028 8.888888
287.998627 110.896599
288.041595 3722.608887
288.11322 21.28743
288.155273 15.62575
288.20932 30.499359
288.260345 8.847222
288.337402 88.133392
288.393341 10.12745
288.43808 56.07164
288.473022 9.001263
288.529297 25.423611
288.679871 4.711957
288.792175 4.774123
288.821747 12.35756
288.878082 2.367424
288.897705 8.375
288.981873 87.978729
289.094025 10.96296
289.194336 16.87813
289.373474 8.680555
289.460419 9.129731
289.61618 21.78009
290.011383 8.742284
290.030243 22.435419
290.169647 2.854167
290.983978 61.863529
291.056061 34.727989
291.316162 11.02126
291.432434 7.933333
291.767609 12.07018
291.993591 55.139179
292.026794 43.784271
292.309509 5.034091
292.749695 6.371212
293.042053 62.806881
294.04126 47.858551
294.250854 7.334302
294.519501 1.694445
294.988983 110.231499
295.266235 10.84722
296.023193 361.99411
296.061829 4.008333
296.133636 1.666667
300.037781 14.01353
300.123474 6.818182
300.306824 4.1875
300.59845 7.05
301.052887 88.576843
301.419312 11.34131
301.685272 21.622101
302.058105 2027.666992
302.126404 3.055556
302.223145 13.68883
302.246216 27.20067
302.378479 21.226851
302.507263 12.24038
302.604279 11.76179
302.84729 22.28824
303.040283 28.34964
303.300659 7.560484
303.40274 2.333333
303.433929 3.691667
303.567261 5.007576
303.881989 9.515573
303.993469 419.923187
304.028107 5.342593
304.100616 72.213127
304.462921 7.747549
304.481415 3.708333
304.904633 20.46888
305.613373 5.480072
306.008759 2146.11792
306.085785 4.041667
306.124451 9.020833
306.165161 17.127199
306.21225 8.341666
306.250977 13.8386
306.280487 17.90217
306.371246 14.34167
306.404877 7.347222
306.434967 15.58333
306.499664 22.266581
306.565704 38.637859
306.590118 4.973485
306.753174 20.369869
306.816559 8.297619
306.855408 7.605556
306.970612 8.787879
307.012848 41.122849
307.03714 20.40741
307.27594 12.03261
307.712433 10.88167
307.983826 18.66725
308.019836 123.533997
308.252441 2.333333
308.69339 9.259408
308.990479 66.283783
310.036621 159.442795
310.522949 15.26059
312.993683 36.87674
316.070282 118.255699
318.054871 20.856131
321.025238 16.04748
321.324768 9.044118
321.34259 7.714285
321.922913 12.03157
322.002777 386.649597
322.09848 12.77232
322.12973 11.67901
322.19693 28.618771
322.242981 12.29551
322.305878 6.446428
322.460754 7.455883
322.535706 8.668011
322.766937 6.6875
322.868988 11.29412
322.912598 6.533333
323.581085 6.95406
323.978668 63.53257
324.019135 3924.383057
324.121826 6.016666
324.143402 3.686404
324.163483 6.880952
324.193512 3.010417
324.268616 22.865549
324.311066 8.871032
324.336609 5.296568
324.367157 5.669445
324.393982 11.33734
324.42334 33.364899
324.543976 9.547619
324.5896 40.156288
324.638977 34.402248
324.658081 17.391029
324.720703 23.658541
324.989441 10.47222
325.115173 5.208333
325.499908 8.775641
325.679749 5.480072
326.986938 8.847222
327.943848 1.671296
333.009552 2.333333
335.899536 21.15238
336.019409 274.0242
336.2164 3.002451
336.376373 6.011364
338.034821 1216.428955
338.104889 9.727124
338.30603 6.015
338.46759 12.9707
338.587616 7.810714
338.618561 8.606061
338.670898 20.021429
338.709259 3.375
338.741272 7.388514
338.774261 9.522727
338.824524 8.022223
338.874695 6.898148
338.914276 13.82315
338.950714 16.68889
339.247833 7.455883
339.273102 8.333333
339.695526 7.025
346.332886 6.606061
350.033356 9.926471
352.041931 33.562679
352.979828 35.51022
356.021942 162.048798
356.03952 14.375
356.24115 8.935
356.404266 39.783051
602.597351 7.041667
702.727417 25.653351
709.493347 9.044118
904.516724 9.240384
1299.5802 52.55228
1600.866211 12.41554
1618.803955 9.708333
