>compound MLS001140559-01!1-[2-(4-methyl-2-oxochromen-7-yl)oxyacetyl]piperidine-4-carboxamide
>formula C18H20N2O5
>ionization [M+H]+
>parentmass 345.145
#inchi InChI=1S/C18H20N2O5/c1-11-8-17(22)25-15-9-13(2-3-14(11)15)24-10-16(21)20-6-4-12(5-7-20)18(19)23/h2-3,8-9,12H,4-7,10H2,1H3,(H2,19,23)
#inchikey UVPRISLWQVBUHS
#Ion_Source LC-ESI
#Instrument qTof
#Compound_Source NIH Natural Product Library
#PI Dorrestein
#Data_Collector VVP/LMS
#Scan -1
#Precursor_MZ 345.145
#ExactMass 344.137
#Charge 1
#CAS_Number N/A
#Pubmed_ID N/A
#Smiles Cc1cc(=O)oc2cc(OCC(=O)N3CCC(CC3)C(=O)N)ccc12
#INCHI_AUX N/A
#Library_Class 1
#SpectrumID CCMSLIB00000080187
#IonMode Positive
#UpdateWorkflowName UPDATE-SINGLE-ANNOTATED-GOLD
#LibraryQualityString Gold
#TaskID b1d8e8f6646f4e71acdff9ca3d919d08
##Scan# 1534
#SpectrumFile p2-C05_GC5_01_18005.mzXML
#LibraryName NIH_Natural_Products_Library.mgf
#MQScore -1
#Organism NIH_Natural_Products_Library
#TIC_Query 0
#RT_Query -1
#MZErrorPPM -1
#SharedPeaks 0
#MassDiff 0
#LibMZ -1
#SpecMZ 345.145
#SpecCharge 0
#internalFilename spec-00000.mgf

>collision 10
95.070824 152.0
95.195068 188.0
95.327156 200.0
95.917152 136.0
96.080231 740.0
96.121643 36.0
96.301247 40.0
96.533813 80.0
96.715759 136.0
97.089241 520.0
97.573006 148.0
98.058418 452.0
98.157776 136.0
98.191299 200.0
98.920395 40.0
99.060989 140.0
100.063873 68.0
102.040573 164.0
103.054649 1196.0
103.286842 40.0
103.582367 72.0
104.055878 372.0
104.355568 220.0
104.514214 112.0
105.071327 548.0
105.362373 144.0
106.073296 196.0
106.585541 128.0
107.731056 176.0
108.08371 296.0
108.308182 132.0
108.388985 180.0
108.837013 216.0
109.261002 132.0
110.056786 360.0
110.172035 48.0
111.59507 180.0
112.075645 792.0
112.148117 56.0
112.391235 72.0
113.074921 204.0
114.083443 80.0
114.168495 244.0
114.809502 116.0
114.864952 64.0
114.958824 216.0
115.052742 144.0
115.72834 44.0
116.060448 204.0
116.169823 172.0
116.670181 156.0
117.393631 184.0
117.473434 56.0
120.630898 248.0
121.069786 344.0
121.825195 60.0
122.205528 108.0
122.319969 80.0
122.401428 184.0
123.093819 136.0
123.661972 252.0
123.972023 128.0
124.075798 508.0
125.082016 656.0
125.227242 196.0
125.570473 140.0
126.092842 324.0
126.128662 212.0
126.506699 196.0
126.963776 48.0
127.087715 2528.0
127.127541 176.0
128.065033 220.0
128.094315 148.0
128.130127 196.0
129.069275 192.0
129.098679 168.0
129.43132 68.0
131.049194 1840.0
131.217178 140.0
132.05098 416.0
132.100967 68.0
132.634506 108.0
133.062515 660.0
133.66568 136.0
133.865936 84.0
134.071442 216.0
134.798721 272.0
134.846405 72.0
135.045135 344.0
136.078766 244.0
136.8367 80.0
137.207123 180.0
138.29567 40.0
141.045319 244.0
141.104477 1632.0
141.154068 48.0
142.103867 156.0
143.052109 160.0
143.614441 212.0
145.063477 212.0
145.733047 96.0
145.788315 152.0
146.965805 168.0
147.045441 156.0
148.455856 188.0
149.057877 148.0
149.169662 108.0
150.531601 176.0
150.556015 148.0
154.721359 76.0
155.70575 172.0
156.177979 80.0
158.261765 108.0
158.682678 160.0
159.043076 5092.0
159.141815 44.0
159.292496 116.0
159.941238 52.0
159.984039 184.0
160.046341 332.0
160.49295 64.0
161.059433 2764.0
161.09613 40.0
161.346329 96.0
161.827011 72.0
162.054596 164.0
162.060684 140.0
162.070923 200.0
162.091995 104.0
162.318573 116.0
162.937866 60.0
163.08017 272.0
163.250504 104.0
163.431107 136.0
164.968964 48.0
166.249603 116.0
166.953491 192.0
167.192749 196.0
168.226303 196.0
169.092148 184.0
169.301895 132.0
169.335571 48.0
169.716507 188.0
169.869507 172.0
170.214691 88.0
171.114319 172.0
173.054184 324.0
175.039215 160.0
176.03334 180.0
176.768204 124.0
176.889954 116.0
177.055206 672.0
177.104431 196.0
179.06987 180.0
179.813705 236.0
179.832397 116.0
183.785309 216.0
184.687607 92.0
187.054184 872.0
187.082596 228.0
188.056763 148.0
188.174149 40.0
188.999573 216.0
189.054993 5336.0
189.109039 32.0
189.782928 56.0
190.057846 688.0
190.134048 44.0
190.405838 48.0
190.534943 124.0
191.065521 180.0
194.431046 80.0
196.702225 240.0
198.422974 108.0
198.624573 144.0
198.7901 152.0
200.04361 152.0
200.074585 56.0
200.305496 64.0
201.055923 196.0
201.089462 184.0
202.055725 176.0
203.066986 176.0
204.103516 196.0
205.379349 184.0
206.130173 76.0
214.0457 216.0
215.06897 144.0
215.989365 208.0
217.014343 172.0
217.0522 568.0
217.199097 128.0
225.020737 100.0
225.687012 52.0
226.057922 116.0
226.107147 212.0
226.665787 176.0
227.331482 148.0
227.448532 120.0
229.081543 184.0
230.084671 520.0
231.075989 192.0
231.682327 36.0
234.080917 752.0
234.47168 164.0
238.348892 116.0
240.00795 160.0
241.68515 44.0
244.624161 20.0
246.076874 592.0
246.754883 100.0
247.105164 128.0
247.66864 164.0
247.709366 60.0
248.101074 180.0
251.239594 60.0
257.082123 504.0
258.078705 272.0
258.125519 200.0
259.08197 196.0
259.162598 244.0
260.076538 212.0
262.025269 76.0
263.399506 152.0
264.117065 172.0
266.44458 120.0
269.030334 104.0
269.683624 128.0
270.733795 76.0
271.094147 212.0
271.35965 72.0
271.710571 188.0
271.786041 216.0
272.053772 248.0
272.129272 1720.0
272.485382 112.0
272.646393 40.0
272.764709 76.0
273.133362 484.0
273.81427 88.0
274.127228 140.0
274.298615 72.0
284.135681 192.0
289.420471 48.0
299.267853 92.0
300.046478 104.0
300.123871 2520.0
300.163696 184.0
300.243011 72.0
301.036713 156.0
301.124329 408.0
302.130005 168.0
302.184296 48.0
303.330566 176.0
303.444946 64.0
310.101074 160.0
310.688599 124.0
327.143524 144.0
328.065735 48.0
328.118683 656.0
328.707703 88.0
329.075867 40.0
329.121887 116.0
329.199097 156.0
330.123749 112.0
333.302734 116.0
341.116547 96.0
345.138367 120.0
346.148895 112.0
411.862946 160.0
417.013123 132.0
423.799469 128.0
426.935516 60.0
450.96521 72.0
462.242371 108.0
470.503265 20.0
514.71875 36.0
522.487183 100.0
644.414062 104.0
729.607727 112.0
753.442627 144.0
814.518311 52.0
840.400635 164.0
868.763123 80.0
891.078918 236.0
907.677673 184.0
949.522644 152.0
958.885925 204.0
1041.891968 92.0
1063.796753 48.0
1082.567505 64.0
1099.660156 220.0
1119.142822 48.0
1135.876709 120.0
1137.43335 60.0
1155.709961 156.0
1179.505249 148.0
1185.130615 144.0
1194.480713 132.0
1195.196289 112.0
1216.572632 192.0
1229.358154 144.0
1239.077026 156.0
1239.945923 180.0
1269.760742 192.0
1292.964355 156.0
1294.567871 124.0
1298.021729 196.0
1311.320923 112.0
1332.370117 196.0
1338.341187 216.0
1341.408203 188.0
1342.173706 228.0
1351.639893 124.0
1364.989746 232.0
1372.234741 120.0
1373.717041 164.0
1391.485229 192.0
1400.468018 168.0
1411.303467 160.0
1418.572754 96.0
1418.842529 68.0
1422.510864 156.0
1422.833618 160.0
1432.941284 56.0
1435.23999 108.0
1443.62915 132.0
1455.920654 192.0
1469.538086 148.0
