>compound MLS000028822-01!LONIDAMINE
>formula C15H10Cl2N2O2
>ionization [M+H]+
>parentmass 321.020966
#inchi InChI=1S/C15H10Cl2N2O2/c16-10-6-5-9(12(17)7-10)8-19-13-4-2-1-3-11(13)14(18-19)15(20)21/h1-7H,8H2,(H,20,21)
#inchikey WDRYRZXSPDWGEB
#Ion_Source LC-ESI
#Instrument qTof
#Compound_Source NIH Pharmacologically Active Library
#PI Dorrestein
#Data_Collector VP/LMS
#Scan -1
#Precursor_MZ 321.019
#ExactMass 320.012
#Charge 1
#CAS_Number N/A
#Pubmed_ID N/A
#Smiles OC(=O)c1nn(Cc2ccc(Cl)cc2Cl)c3ccccc13
#INCHI_AUX N/A
#Library_Class 1
#SpectrumID CCMSLIB00000085191
#IonMode Positive
#UpdateWorkflowName UPDATE-SINGLE-ANNOTATED-GOLD
#LibraryQualityString Gold
#TaskID d252d724072548979f1f6f1ced849daf
##Scan# 2300
#SpectrumFile p3-F10_GF10_01_18291.mzXML
#LibraryName Pharm_Active_Library.mgf
#MQScore -1
#Organism Pharm_Active_Library
#TIC_Query 0
#RT_Query -1
#MZErrorPPM -1
#SharedPeaks 0
#MassDiff 0
#LibMZ -1
#SpecMZ 321.019
#SpecCharge 0
#internalFilename spec-00000.mgf

>collision 10
45.169216 152.0
45.20668 168.0
45.43314 136.0
45.681686 152.0
46.017284 160.0
46.121315 172.0
46.383934 136.0
46.512806 84.0
46.534531 140.0
46.582066 100.0
46.918224 164.0
47.213184 152.0
47.373341 224.0
47.568081 200.0
47.629879 228.0
47.995987 84.0
48.076 200.0
48.189236 216.0
48.551937 236.0
48.956253 180.0
49.235313 120.0
49.422646 172.0
49.566883 36.0
49.653805 180.0
49.690277 128.0
49.702908 60.0
49.739399 176.0
50.065613 180.0
50.216427 96.0
50.278507 204.0
50.390068 144.0
50.644722 140.0
51.155952 176.0
51.316952 204.0
51.372574 156.0
51.503246 172.0
51.678333 68.0
51.874554 144.0
52.328564 132.0
52.625599 192.0
52.775875 160.0
52.796124 196.0
52.966923 120.0
53.153961 176.0
53.300629 168.0
53.441681 208.0
53.867416 120.0
54.044331 260.0
54.236191 180.0
54.530647 152.0
54.634171 68.0
54.656242 156.0
54.741623 128.0
54.962749 140.0
55.240524 92.0
55.283436 144.0
55.427086 204.0
55.563503 148.0
55.636227 128.0
55.67038 184.0
55.885933 52.0
56.101902 88.0
56.260048 164.0
57.475857 112.0
57.528683 148.0
57.759903 64.0
57.772003 124.0
57.86433 160.0
58.058296 172.0
58.087116 116.0
58.251072 112.0
58.398521 156.0
58.607796 140.0
58.700085 112.0
59.11256 168.0
59.488091 164.0
59.617119 212.0
59.838634 140.0
59.98962 196.0
60.451466 76.0
60.598576 156.0
60.641968 124.0
60.821903 124.0
60.955479 108.0
61.050308 176.0
61.095421 144.0
61.167007 148.0
61.572422 200.0
61.638039 188.0
61.772507 196.0
61.983879 236.0
62.377583 204.0
62.618595 124.0
62.640648 208.0
62.657978 176.0
62.916641 200.0
62.93243 152.0
63.13945 132.0
63.375332 236.0
63.433975 220.0
63.513264 148.0
63.64817 248.0
63.749844 96.0
63.808659 140.0
63.983677 84.0
64.06012 176.0
64.096771 136.0
64.251434 152.0
64.599724 208.0
64.876785 224.0
64.900833 152.0
65.220329 204.0
65.382782 140.0
65.590569 152.0
65.616364 92.0
65.674423 172.0
65.87944 188.0
66.624695 168.0
67.22229 288.0
67.712769 148.0
68.017754 208.0
68.159004 152.0
68.257637 152.0
68.715569 160.0
68.94841 184.0
68.984772 164.0
69.045959 164.0
69.122055 144.0
69.183304 84.0
69.228012 140.0
69.251198 156.0
69.337563 160.0
69.528091 204.0
69.579552 176.0
69.715767 200.0
69.807198 172.0
69.873734 196.0
69.963615 176.0
70.041649 196.0
70.138535 124.0
70.235252 144.0
70.363754 228.0
70.659592 192.0
70.726532 236.0
70.808586 180.0
70.899055 204.0
71.790108 204.0
71.924988 132.0
71.952103 204.0
72.318947 132.0
72.466286 180.0
72.513741 136.0
72.9347 236.0
73.006111 172.0
73.293808 88.0
73.433609 96.0
73.460907 204.0
73.605988 172.0
73.941071 84.0
74.119179 180.0
74.400475 60.0
74.573982 80.0
75.014664 44.0
75.195786 152.0
75.365028 208.0
75.631371 104.0
76.024818 148.0
76.320351 164.0
76.492386 180.0
76.650887 148.0
76.703171 76.0
76.720604 172.0
76.806061 184.0
76.968376 36.0
77.213043 68.0
77.227036 188.0
77.400299 248.0
77.438828 196.0
78.009132 140.0
78.030235 144.0
78.303001 120.0
78.454544 192.0
78.518028 204.0
78.562126 56.0
78.761612 152.0
79.115303 192.0
79.255226 112.0
79.315483 220.0
79.723724 160.0
80.115189 148.0
80.195381 148.0
80.827621 176.0
81.022789 120.0
81.248695 272.0
81.28817 232.0
81.388695 156.0
81.584541 148.0
81.703247 168.0
81.834633 64.0
81.908478 140.0
82.085106 260.0
82.484131 112.0
82.547417 88.0
82.760948 180.0
83.014442 180.0
83.085388 136.0
83.36866 200.0
83.512299 204.0
83.759857 108.0
84.226852 228.0
84.631042 168.0
84.692902 108.0
84.982979 156.0
85.008667 136.0
85.431282 176.0
85.488327 124.0
85.912132 152.0
85.951706 212.0
86.299995 216.0
86.368423 204.0
86.447983 128.0
87.011497 128.0
87.647636 196.0
87.753883 104.0
87.774399 72.0
87.994583 160.0
88.284225 152.0
88.325371 136.0
88.469475 180.0
88.578087 204.0
88.658661 128.0
89.038017 236.0
89.1297 172.0
89.4645 120.0
90.273987 136.0
90.35154 148.0
90.429123 216.0
90.482132 100.0
91.060524 144.0
91.098511 188.0
91.157417 148.0
91.174515 112.0
91.197327 156.0
91.351357 168.0
91.429375 140.0
91.480766 120.0
91.598839 144.0
92.268707 168.0
92.465744 164.0
92.774147 240.0
93.217545 128.0
93.465614 128.0
94.177254 172.0
94.331619 132.0
94.619881 128.0
94.714775 212.0
94.732216 36.0
95.176369 132.0
95.541786 68.0
95.67218 188.0
95.792923 148.0
95.816307 52.0
95.863068 172.0
96.143906 156.0
96.472069 156.0
96.556152 164.0
96.716599 48.0
96.979073 192.0
97.000641 164.0
97.361679 176.0
97.695847 152.0
97.804077 144.0
97.849358 168.0
97.871017 132.0
98.176338 180.0
98.624664 200.0
98.997429 564.0
99.020401 172.0
99.258224 136.0
99.407005 116.0
99.897781 192.0
99.997276 472.0
100.813004 144.0
100.944954 136.0
100.962952 132.0
100.998871 372.0
101.068977 88.0
101.451538 48.0
101.758507 124.0
101.894913 236.0
101.973457 196.0
101.98954 176.0
102.003609 180.0
102.10817 72.0
102.268456 228.0
102.768944 176.0
102.869858 220.0
103.425766 144.0
104.052025 228.0
104.235016 84.0
104.41188 144.0
104.925041 280.0
105.008652 224.0
105.090256 40.0
105.282143 184.0
105.38224 148.0
105.410851 84.0
105.621445 200.0
105.801529 220.0
106.168327 156.0
106.441269 104.0
107.379738 248.0
107.590218 184.0
107.635643 212.0
107.747185 160.0
108.21048 152.0
108.268463 144.0
108.34304 260.0
108.562759 188.0
108.577278 116.0
108.942612 188.0
109.70639 132.0
110.073624 104.0
110.503265 128.0
110.610962 60.0
110.732407 104.0
110.876976 56.0
110.910515 164.0
111.170593 120.0
111.409966 136.0
111.447784 196.0
111.733742 116.0
111.750572 172.0
112.85585 192.0
113.283379 256.0
113.539864 124.0
113.573799 176.0
113.688377 136.0
113.832733 152.0
114.289772 184.0
114.370644 156.0
115.052826 152.0
115.433167 124.0
115.475937 140.0
115.627853 140.0
115.831268 120.0
116.339523 200.0
116.441399 196.0
116.466225 240.0
116.4963 160.0
116.689728 216.0
116.876862 140.0
117.376617 132.0
117.974709 68.0
118.04174 164.0
118.637184 172.0
118.843231 184.0
119.386314 292.0
119.856537 236.0
120.04837 120.0
120.078903 136.0
120.15744 176.0
120.515526 92.0
121.003288 112.0
121.027374 184.0
121.049271 204.0
121.200424 176.0
121.6259 188.0
121.781807 160.0
122.395401 148.0
122.516548 32.0
122.536377 100.0
122.92907 188.0
122.97081 156.0
122.99781 4308.0
123.075363 72.0
123.167336 180.0
123.220352 56.0
123.288857 84.0
123.326431 148.0
123.737907 40.0
123.90181 96.0
123.966064 152.0
124.004761 2080.0
124.136765 52.0
124.354195 92.0
124.407471 200.0
124.85347 168.0
124.887466 56.0
124.996681 676.0
125.125587 52.0
125.158981 64.0
125.330505 88.0
125.589119 192.0
125.853088 172.0
125.944031 136.0
126.00312 596.0
126.321815 64.0
126.718094 88.0
126.762909 168.0
127.007294 172.0
127.211502 184.0
129.004761 104.0
129.043198 120.0
129.115555 140.0
129.782791 200.0
130.017273 100.0
130.046783 188.0
130.744553 128.0
130.922134 176.0
131.553757 172.0
131.603989 64.0
131.825562 68.0
132.019882 48.0
132.768784 64.0
132.95845 252.0
133.005112 148.0
133.303696 148.0
133.381851 92.0
133.446213 232.0
133.469208 200.0
133.67395 176.0
133.968674 224.0
134.074661 148.0
134.24527 176.0
134.312164 156.0
134.955811 252.0
135.400833 96.0
135.539841 140.0
135.836609 168.0
136.156937 164.0
136.666046 76.0
136.898834 196.0
136.985016 184.0
137.024612 160.0
137.05957 144.0
137.453659 124.0
137.523682 152.0
137.883377 168.0
138.056381 144.0
138.140579 148.0
138.168655 156.0
138.505768 172.0
138.545593 116.0
138.594803 144.0
138.993439 132.0
139.014557 144.0
139.279877 140.0
140.060837 100.0
140.251709 116.0
140.338943 168.0
140.938492 184.0
141.051941 144.0
141.082672 128.0
141.764374 144.0
141.802292 152.0
142.084488 60.0
142.222122 172.0
143.339966 168.0
143.659454 124.0
144.814041 172.0
144.955399 168.0
144.991348 216.0
145.744888 188.0
146.071869 168.0
146.098328 240.0
146.360687 84.0
146.440155 68.0
146.767914 116.0
146.87886 172.0
146.936768 96.0
147.079147 172.0
147.117767 136.0
147.368958 228.0
147.838089 136.0
148.031754 164.0
148.657211 120.0
148.700897 184.0
149.048187 164.0
149.466446 196.0
149.95108 352.0
150.092484 172.0
151.022995 60.0
151.980911 156.0
152.022629 140.0
152.238663 152.0
152.481888 144.0
152.863098 140.0
154.009552 132.0
154.14296 132.0
154.461914 224.0
154.625229 144.0
155.338852 148.0
155.567169 252.0
155.681381 164.0
155.740997 144.0
155.997253 160.0
156.016846 196.0
156.046677 168.0
156.083969 216.0
156.123764 144.0
156.183456 148.0
156.350159 148.0
156.422348 240.0
156.594162 152.0
156.858292 156.0
157.040604 176.0
157.0952 136.0
157.519592 152.0
157.862015 128.0
158.024612 116.0
158.092178 136.0
158.270966 220.0
158.299957 120.0
158.643234 84.0
158.666428 160.0
158.72876 180.0
158.823792 92.0
158.841354 52.0
158.868942 116.0
158.890945 184.0
158.914413 160.0
158.936264 168.0
158.975189 54132.0
159.045395 216.0
159.074738 68.0
159.099075 212.0
159.123856 120.0
159.144913 88.0
159.191132 76.0
159.243607 64.0
159.293213 44.0
159.322464 68.0
159.34848 72.0
159.388885 176.0
159.421356 68.0
159.466599 64.0
159.508224 64.0
159.559601 104.0
159.606354 88.0
159.627502 64.0
159.647614 84.0
159.683762 108.0
159.699295 88.0
159.720551 72.0
159.783447 80.0
159.806091 60.0
159.823715 72.0
159.841324 80.0
159.951401 208.0
159.978424 3456.0
160.037674 124.0
160.095581 172.0
160.145966 160.0
160.216492 40.0
160.345932 76.0
160.45845 60.0
160.539139 32.0
160.666138 92.0
160.695541 140.0
160.767456 144.0
160.808319 144.0
160.829285 48.0
160.866058 64.0
160.910263 164.0
160.972458 31024.0
161.039703 308.0
161.079285 132.0
161.142883 160.0
161.208145 104.0
161.248688 100.0
161.271332 80.0
161.354752 48.0
161.377502 68.0
161.471085 44.0
161.600098 68.0
161.705978 100.0
161.843094 84.0
161.865875 228.0
161.975037 1548.0
162.033051 48.0
162.10907 108.0
162.129349 52.0
162.233276 68.0
162.583328 64.0
162.649323 92.0
162.672165 60.0
162.766098 200.0
162.967819 244.0
163.012512 108.0
163.043015 36.0
163.172653 84.0
163.236221 136.0
163.264206 196.0
163.284546 164.0
163.363403 144.0
163.691742 140.0
163.965912 64.0
164.242264 40.0
165.033981 60.0
165.351196 32.0
166.235382 96.0
167.33815 56.0
167.861237 60.0
167.961823 72.0
168.571152 84.0
170.996078 152.0
171.952621 92.0
172.702515 168.0
173.624481 152.0
175.048889 176.0
176.067856 140.0
176.476471 84.0
177.063965 108.0
177.358078 80.0
178.077148 160.0
178.866898 76.0
179.00267 132.0
182.225983 84.0
182.97908 72.0
183.05986 64.0
183.855164 116.0
184.033325 160.0
184.884857 140.0
184.938995 56.0
185.654282 176.0
185.958145 132.0
188.425385 44.0
191.024399 52.0
191.773407 108.0
191.817505 48.0
194.023636 148.0
198.072968 188.0
199.447968 112.0
200.007217 152.0
204.964172 112.0
205.074692 336.0
207.058228 84.0
208.909698 72.0
208.958603 168.0
212.039856 308.0
212.785385 92.0
213.282166 68.0
214.038605 176.0
214.152191 52.0
215.032745 120.0
219.492096 108.0
223.259033 88.0
228.752747 76.0
229.102081 80.0
229.635635 56.0
229.93132 148.0
230.043015 152.0
234.130447 128.0
240.04335 492.0
246.983978 168.0
254.145233 156.0
257.983185 160.0
258.133453 164.0
259.048859 140.0
260.643463 136.0
263.107513 96.0
264.167542 136.0
266.02124 184.0
267.031799 76.0
268.042053 440.0
269.04892 156.0
270.043976 120.0
271.036346 180.0
273.191467 116.0
273.490906 52.0
274.073853 156.0
277.153534 120.0
277.989166 156.0
290.99408 152.0
296.650757 124.0
301.998596 164.0
303.009857 448.0
304.022003 184.0
304.362213 72.0
305.010498 180.0
305.105774 100.0
305.432678 44.0
306.857056 88.0
308.019196 132.0
311.462646 76.0
319.234985 112.0
321.020966 128.0
322.997894 168.0
329.161896 132.0
353.628967 32.0
355.033966 132.0
368.946564 64.0
383.578583 96.0
395.160614 32.0
421.808105 100.0
438.001434 60.0
548.588135 44.0
726.921997 104.0
801.545715 20.0
811.701233 20.0
840.282349 288.0
850.102051 68.0
851.685669 60.0
868.345947 136.0
875.86969 72.0
900.062378 96.0
903.110352 168.0
927.213135 160.0
945.01355 52.0
945.239929 216.0
990.452332 244.0
1044.444946 80.0
1045.165527 160.0
1052.727173 116.0
1056.133301 200.0
1090.451172 112.0
1094.464233 172.0
1095.577393 156.0
1097.614014 152.0
1108.435425 128.0
1109.907104 196.0
1129.046631 104.0
1140.485229 160.0
1145.053955 72.0
1149.287598 180.0
1156.532593 240.0
1162.544434 196.0
1163.71875 84.0
1167.007446 164.0
1170.191772 164.0
1174.990112 200.0
1178.458618 132.0
1185.842773 168.0
1186.130615 140.0
1188.922241 120.0
1189.848999 188.0
1204.14502 172.0
1205.851562 148.0
1207.884521 40.0
1224.982666 132.0
1226.390259 336.0
1226.536621 188.0
1227.456909 104.0
1236.700195 228.0
1238.002441 144.0
1260.83252 152.0
1261.249512 160.0
1261.892822 236.0
1262.05542 36.0
1269.122192 216.0
1270.022949 156.0
1272.570679 180.0
1277.666748 204.0
1278.143433 224.0
1285.269287 108.0
1294.641357 192.0
1294.813232 148.0
1295.866333 168.0
1300.025391 136.0
1305.125732 108.0
1308.500366 172.0
1314.757446 216.0
1315.572998 132.0
1316.468384 48.0
1320.848511 140.0
1320.928101 120.0
1332.60791 144.0
1345.71875 136.0
1348.757935 48.0
1349.796143 256.0
1350.600586 204.0
1356.172974 200.0
1357.720093 192.0
1359.172607 124.0
1360.736084 240.0
1363.46875 148.0
1365.130249 176.0
1367.558228 156.0
1369.649414 180.0
1376.575073 128.0
1377.779053 152.0
1382.895752 188.0
1384.525269 140.0
1388.178955 176.0
1390.80542 196.0
1391.584961 172.0
1396.155029 48.0
1396.452637 132.0
1399.548462 164.0
1400.255981 148.0
1405.75061 168.0
1409.148193 160.0
1409.955322 152.0
1413.21582 164.0
1415.394043 80.0
1415.558838 112.0
1417.573975 148.0
1418.540894 68.0
1423.958618 148.0
1426.874268 228.0
1428.792236 48.0
1429.808105 56.0
1430.462891 160.0
1432.45105 144.0
1434.05603 196.0
1435.224609 112.0
1435.842163 184.0
1436.536987 132.0
1437.683838 192.0
1437.766846 64.0
1446.292725 152.0
1447.670776 148.0
1449.147949 228.0
1449.814819 144.0
1450.352905 172.0
1452.514038 44.0
1453.067871 116.0
1454.320068 188.0
1468.564331 152.0
1471.281006 164.0
1472.014038 108.0
1473.037476 128.0
1474.795044 112.0
1479.331299 188.0
1484.211914 196.0
1485.101562 148.0
1485.231934 200.0
1488.401733 184.0
1492.02832 120.0
1493.704834 188.0
1494.058716 228.0
1500.836792 196.0
1505.459229 148.0
