>compound Methocarbamol
>formula C11H15NO5 
>ionization [M+H]+
>parentmass 242.103561
#inchi InChI=1S/C11H15NO5/c1-15-9-4-2-3-5-10(9)16-6-8(13)7-17-11(12)14/h2-5,8,13H,6-7H2,1H3,(H2,12,14)
#inchikey GNXFOGHNGIVQEH
#Ion_Source LC-ESI
#Instrument qTof
#Compound_Source Isolated
#PI Sirenas
#Data_Collector Ed Esquenazi 
#Scan -1
#Precursor_MZ 242.102
#ExactMass 0.0
#Charge 1
#CAS_Number N/A
#Pubmed_ID N/A
#Smiles N/A
#INCHI_AUX N/A
#Library_Class 3
#SpectrumID CCMSLIB00000005476
#IonMode Positive
#UpdateWorkflowName UPDATE-SINGLE-ANNOTATED-BRONZE
#LibraryQualityString Bronze
#TaskID d19310cd93df49b68e9fcbec27720eb5
##Scan# 1
#SpectrumFile Methocarbamol.mgf
#LibraryName fda_library.mgf
#MQScore -1
#Organism fda_library
#TIC_Query 0
#RT_Query -1
#MZErrorPPM -1
#SharedPeaks 0
#MassDiff 0
#LibMZ -1
#SpecMZ 242.102
#SpecCharge 0
#internalFilename spec-00000.mgf

>collision 10
102.525047 4.668478
102.573532 18.42733
103.054062 200.665405
103.096489 3.010417
103.588066 6.737069
105.069336 479.980896
105.112617 2.333333
105.290909 13.13626
106.562103 10.60093
106.580902 7.190217
107.047783 266.485992
107.090668 5.357143
107.335991 8.818548
107.469009 8.523648
109.026039 52.257221
109.06205 143.760803
110.037201 53.938789
110.230873 17.67738
110.381195 25.56019
115.05072 43.85965
116.711906 8.284091
116.780518 10.82843
116.873657 12.8023
117.065918 72.272003
117.227402 21.84363
117.257553 12.13564
117.287613 15.26042
117.367561 17.40749
117.379196 5.802778
117.404427 13.50379
117.416054 5.1875
117.439278 16.173611
117.44664 23.78722
117.460236 9.400001
117.475983 24.36508
117.494232 11.73016
117.523453 36.39394
117.552727 28.39278
117.577888 9.344697
117.609421 21.70417
117.653404 28.93471
117.668892 5.865196
117.695724 16.17083
117.710342 6.844298
117.718513 5.336111
117.72538 24.126909
117.762886 9.010715
117.77095 3.555556
117.831429 5.703947
117.913994 12.65476
117.958275 13.28167
118.032005 44.966671
118.049774 35926.761719
118.094536 71.710617
118.113632 14.75
118.133774 3.888889
118.151024 15.11111
118.162796 12.84821
118.183357 15.61198
118.207489 26.80603
118.233452 19.760059
118.243454 28.396259
118.250702 49.482731
118.269562 92.72113
118.285446 56.283539
118.310547 37.737179
118.328102 27.52466
118.350006 84.062683
118.371536 7.656609
118.382408 10.71429
118.397133 23.331181
118.408371 5.041667
118.425591 51.969219
118.441551 14.4359
118.460312 35.65683
118.474442 25.84355
118.485176 46.76667
118.503052 29.1201
118.520966 20.597269
118.559433 27.3918
118.571075 46.36887
118.585632 8.741667
118.611397 9.724206
118.62513 6.337963
118.632515 15.6864
118.655876 34.68755
118.690086 17.87756
118.801743 28.956499
118.864288 16.604441
118.96907 12.49038
119.045212 36.46944
119.053886 50.395351
119.128334 7.453703
119.173233 10.375
119.186333 17.420139
119.294136 19.11204
119.509621 32.137211
119.569099 14.90566
119.593323 30.001619
120.056702 120.012802
120.076958 6.001344
120.706787 2.666667
121.028061 58.667789
121.06488 691.642578
121.112274 2.367424
121.119934 2.016667
121.403206 3.375
121.587479 12.7902
121.737137 9.491228
121.91761 9.001126
122.036102 480.763489
122.340508 5.355392
123.043968 994.7771
123.157631 6.335
123.28067 6.166667
123.297295 18.80682
123.357483 2.444444
123.824883 6.55147
124.334114 8.601191
124.36927 12.61232
124.384529 12.67742
124.407608 41.492741
124.473816 25.01515
124.481644 9.002451
124.493195 2.336539
124.518051 16.753469
124.562881 6.494048
124.624252 6.963235
124.633026 20.71047
124.77626 6.35
125.059128 5979.339844
125.098236 25.062241
125.106941 29.109489
125.120865 3.875
125.159088 49.638401
125.180237 18.586809
125.196907 22.03141
125.208435 20.69388
125.259712 19.34099
125.271141 29.013889
125.288033 11.84028
125.313217 41.269989
125.345215 14.40754
125.386444 27.98975
125.426521 8.354167
125.458504 4.297619
125.508446 10.67361
125.544853 10.16855
125.569664 12.74359
125.730606 4.34375
125.875206 18.81336
125.940872 23.55784
125.980278 17.373369
126.063622 31.29744
126.74688 5.666667
127.040932 11.67083
128.464218 2.333333
131.046509 496.484894
131.281357 20.4
131.713867 5.0
133.062439 78.803337
133.629242 4.694444
134.069931 37.751492
134.430725 8.491228
134.85849 5.09375
134.97406 5.265351
135.041733 106.820198
135.079956 2191.375977
135.12944 17.42168
135.145615 7.708333
135.226517 13.00962
135.254837 6.666667
135.271027 4.037037
135.299942 19.979799
135.333817 14.29167
135.416962 2.449074
135.45192 9.601666
135.529587 11.26248
135.562576 7.969086
135.59491 2.722222
135.672058 13.90645
135.756989 6.333333
136.399673 9.523809
136.506439 4.226852
137.058868 1110.415039
137.106064 8.678763
137.13176 14.68254
137.146759 17.69253
137.158264 8.708333
137.187546 3.375
137.220154 12.66667
137.351105 18.739731
137.501724 21.836269
138.446671 9.8
145.063126 85.574463
147.03949 21.38081
148.051224 272.144714
148.117752 12.18841
148.32106 12.18841
148.355087 8.535
148.490417 13.225
149.059296 171.360199
149.110504 5.802778
149.212448 8.552536
150.190964 4.333333
150.239212 6.865196
150.455322 4.714286
150.515121 10.00641
150.579178 15.40833
150.929337 5.678572
151.010727 7.468334
151.07489 4181.446777
151.125839 38.68729
151.203094 10.04003
151.256577 2.541667
151.295883 6.185606
151.305786 6.095238
151.352982 12.5
151.410645 3.333333
151.421341 17.00062
151.4832 11.13038
151.721176 13.56944
151.7686 23.680269
152.074524 32.138329
152.356018 6.364899
153.393478 12.15
156.816315 3.816667
160.910721 2.333333
162.073441 11.48457
162.104446 16.38904
162.122391 22.032631
162.131012 2.041667
162.145874 20.667271
162.168213 15.78261
162.241806 11.36232
162.3181 16.81349
162.33905 10.34405
162.383224 35.50238
162.507904 10.05769
162.565414 6.380208
162.685196 5.008333
162.765076 3.333333
162.978088 6.787879
163.004837 10.67628
163.049896 56.285549
163.074799 10382.94043
163.129227 10.725
163.143784 43.417931
163.17395 21.13657
163.183029 17.36149
163.2155 26.651541
163.22731 19.716459
163.246567 23.48189
163.266998 4.8
163.289276 77.75161
163.320343 7.092593
163.329102 2.053571
163.341888 4.922222
163.363541 14.79694
163.377838 23.322371
163.387192 13.34626
163.413437 24.85985
163.431458 13.9616
163.440414 20.008329
163.458374 32.795139
163.467133 7.214285
163.476822 5.694445
163.533829 11.33823
163.579437 51.43821
163.605316 25.01335
163.638824 55.718361
163.658295 7.777778
163.671936 17.05533
163.733688 20.027781
163.770966 5.787037
163.818665 13.45665
163.836502 33.224499
163.885071 9.388441
163.912231 23.347219
163.939194 18.922621
164.001282 10.44537
164.406219 68.339813
164.742355 13.48188
165.340668 20.48485
166.138306 12.0121
166.349716 8.223765
167.069733 21.72024
167.671814 3.640152
171.958923 3.0
179.983704 9.015873
180.053925 9.534524
180.207764 7.815476
181.044724 17.66667
181.086166 1297.160034
181.145233 19.796009
181.264206 33.861801
181.297577 12.17754
181.349014 7.366667
181.376175 5.375
181.39595 8.352941
181.687729 5.041667
182.82785 2.333333
186.634125 14.33399
197.836655 18.226851
197.877167 8.547619
197.946579 12.73246
197.98465 15.08821
198.018967 2.761364
198.099396 16.10294
198.196136 6.075
198.268646 10.33929
198.283356 6.66821
198.494064 6.015
199.0961 3710.219971
199.155029 16.331409
199.175873 2.761364
199.195465 8.272223
199.206375 8.148334
199.256042 24.18919
199.284714 19.42857
199.30368 16.38868
199.321121 48.731251
199.335419 26.910549
199.355698 25.32547
199.392014 15.51011
199.417404 8.606061
199.445816 31.87751
199.486053 9.695513
199.54184 4.531863
199.578735 7.028153
199.701614 7.354167
199.869736 8.866667
200.134521 10.10227
201.248642 9.468333
201.805527 6.833333
206.974182 8.022223
222.785095 5.001984
222.979218 7.102273
224.09137 918.375793
224.246002 24.835279
224.285294 8.881667
224.389236 5.136111
224.446411 14.69678
224.48761 5.002778
224.543655 8.380208
224.715698 7.533333
227.026657 8.403735
242.103561 225.648102
242.222351 16.925211
242.38588 10.37255
321.136017 9.04344
457.782532 7.605556
1123.560547 7.969086
