>compound MLS001148390-01!DL-KAWAIN
>formula C14H14O3
>ionization [M+H]+
>parentmass 231.102
#inchi InChI=1S/C14H14O3/c1-16-13-9-12(17-14(15)10-13)8-7-11-5-3-2-4-6-11/h2-8,10,12H,9H2,1H3/b8-7+
#inchikey XEAQIWGXBXCYFX
#Ion_Source LC-ESI
#Instrument qTof
#Compound_Source NIH Pharmacologically Active Library
#PI Dorrestein
#Data_Collector VP/LMS
#Scan -1
#Precursor_MZ 231.102
#ExactMass 230.094
#Charge 1
#CAS_Number N/A
#Pubmed_ID N/A
#Smiles COC1=CC(=O)OC(C1)/C=C/c2ccccc2
#INCHI_AUX N/A
#Library_Class 1
#SpectrumID CCMSLIB00000084963
#IonMode Positive
#UpdateWorkflowName UPDATE-SINGLE-ANNOTATED-GOLD
#LibraryQualityString Gold
#TaskID d252d724072548979f1f6f1ced849daf
##Scan# 2050
#SpectrumFile p3-D03_GD3_01_18260.mzXML
#LibraryName Pharm_Active_Library.mgf
#MQScore -1
#Organism Pharm_Active_Library
#TIC_Query 0
#RT_Query -1
#MZErrorPPM -1
#SharedPeaks 0
#MassDiff 0
#LibMZ -1
#SpecMZ 231.102
#SpecCharge 0
#internalFilename spec-00000.mgf

>collision 10
44.994907 168.0
45.026955 196.0
46.414494 204.0
46.487747 200.0
46.571922 212.0
46.60181 212.0
46.766056 140.0
48.441715 56.0
48.745579 44.0
49.184303 108.0
49.25412 168.0
49.869263 120.0
50.109909 100.0
50.273479 224.0
50.527828 152.0
51.274773 200.0
52.058781 148.0
52.109058 156.0
52.124863 144.0
52.235573 236.0
52.324799 184.0
52.538101 176.0
52.947182 248.0
55.053272 220.0
55.663406 120.0
55.942936 192.0
56.478657 264.0
56.655304 192.0
56.697258 52.0
56.86824 60.0
57.06955 136.0
57.740623 144.0
58.184616 84.0
59.351868 184.0
59.862045 220.0
60.080921 72.0
60.357395 168.0
61.106583 196.0
63.016354 108.0
63.999771 136.0
64.226082 168.0
65.037346 200.0
65.156181 104.0
65.558456 124.0
66.745056 108.0
66.86544 56.0
67.47226 180.0
68.219849 152.0
68.79644 84.0
69.171707 48.0
70.133492 176.0
70.345337 108.0
71.011314 140.0
72.561073 128.0
72.849586 144.0
73.629723 172.0
73.961426 216.0
74.01107 140.0
74.157639 232.0
74.45179 84.0
74.880035 144.0
75.504814 164.0
75.544601 184.0
75.688255 104.0
75.98291 180.0
76.102676 236.0
77.037941 228.0
77.961342 136.0
78.204056 172.0
79.370056 108.0
79.915367 80.0
80.159317 248.0
80.221703 124.0
80.532188 320.0
80.619736 136.0
80.832542 156.0
80.879074 180.0
80.936363 200.0
82.592117 168.0
82.997795 96.0
83.631836 228.0
83.87957 48.0
84.092979 188.0
84.356018 80.0
85.325829 152.0
85.496902 212.0
86.223541 160.0
86.838234 212.0
87.029373 296.0
87.060944 176.0
87.369499 156.0
88.147018 140.0
88.322762 184.0
88.362045 156.0
89.237946 212.0
89.48819 92.0
89.565399 128.0
89.680344 192.0
89.746323 44.0
90.4813 64.0
90.905891 64.0
91.052071 168.0
92.109192 132.0
92.382553 188.0
92.663986 212.0
93.911613 204.0
94.485344 140.0
94.647926 116.0
95.54464 136.0
95.899055 192.0
97.240807 140.0
98.234497 28.0
98.73027 196.0
99.146019 136.0
100.273041 228.0
100.845726 152.0
100.885704 156.0
101.111191 204.0
101.889763 256.0
102.0467 180.0
102.064629 152.0
102.36647 184.0
103.053467 688.0
103.347496 172.0
103.9757 60.0
104.683182 112.0
104.980705 176.0
105.46254 148.0
105.495247 136.0
106.193504 236.0
106.207863 96.0
107.01963 44.0
107.415329 112.0
108.061958 184.0
108.729218 136.0
109.173805 164.0
109.604713 44.0
109.681824 80.0
109.696419 48.0
111.068184 168.0
111.704666 244.0
112.374619 188.0
112.469582 148.0
114.09864 48.0
114.321983 176.0
114.356033 120.0
114.807709 108.0
115.054527 4420.0
115.080849 80.0
115.102196 104.0
115.121414 60.0
115.382103 104.0
116.056778 380.0
116.374092 52.0
116.703621 140.0
117.04496 120.0
117.06916 208.0
117.167732 80.0
117.428566 264.0
118.275558 208.0
118.561462 116.0
119.527824 184.0
119.562645 144.0
122.399811 224.0
122.631134 180.0
124.500656 136.0
124.773972 260.0
125.040901 160.0
125.247971 88.0
126.044022 416.0
126.263527 40.0
126.561157 76.0
126.608177 152.0
126.717941 144.0
127.03125 176.0
127.056046 1268.0
128.009506 164.0
128.062027 4876.0
128.214508 88.0
128.302429 96.0
128.412918 160.0
128.762756 56.0
128.8983 96.0
128.968353 120.0
129.069809 944.0
129.17186 128.0
129.232956 48.0
129.70401 196.0
129.74707 96.0
129.826431 120.0
130.073868 300.0
130.21907 156.0
130.880844 68.0
130.983322 144.0
131.048019 472.0
131.083572 144.0
131.615067 204.0
131.822937 120.0
132.051559 228.0
132.2117 152.0
133.468811 68.0
134.136475 176.0
135.020813 104.0
136.058899 96.0
137.06369 152.0
138.962326 48.0
140.786621 120.0
140.92836 160.0
141.069382 880.0
141.304291 32.0
141.432083 80.0
141.908249 52.0
142.041061 156.0
142.076065 856.0
143.088104 584.0
143.1129 176.0
143.165283 44.0
143.885391 136.0
144.082901 304.0
144.270035 92.0
145.063477 320.0
146.955154 232.0
147.322128 168.0
147.972687 176.0
148.251251 184.0
148.568878 196.0
148.675644 176.0
149.038391 180.0
150.010986 96.0
150.05452 140.0
150.063004 120.0
150.072754 180.0
150.269501 176.0
150.376877 172.0
150.4086 132.0
151.054382 1028.0
151.653625 152.0
151.920914 44.0
152.061295 7016.0
152.100052 36.0
152.11969 132.0
152.311218 48.0
152.645462 52.0
152.756149 48.0
152.84964 184.0
152.908707 132.0
152.991104 168.0
153.024399 124.0
153.068954 5840.0
153.113007 264.0
153.129318 152.0
153.157379 32.0
153.246063 44.0
153.275635 76.0
153.344635 116.0
153.384079 68.0
153.437134 92.0
153.630676 56.0
153.707169 104.0
153.847839 132.0
154.074936 1688.0
154.151657 44.0
154.168945 52.0
154.186249 76.0
154.243103 120.0
154.359299 184.0
154.616577 72.0
154.846832 140.0
154.992996 56.0
155.061203 616.0
155.083054 872.0
155.11145 100.0
155.134262 72.0
155.203674 32.0
155.235916 80.0
155.488968 44.0
156.062805 160.0
156.087662 372.0
156.204559 40.0
156.294128 84.0
156.896866 100.0
157.066299 368.0
157.163742 108.0
158.108337 220.0
164.057053 144.0
165.066101 524.0
165.818237 160.0
165.889999 52.0
165.925903 80.0
166.072983 324.0
167.079041 192.0
167.88269 188.0
168.962387 124.0
169.064529 1620.0
169.199234 100.0
170.069397 1424.0
170.113022 220.0
171.054062 152.0
171.082626 336.0
171.392624 100.0
171.968964 128.0
172.081451 184.0
174.079117 80.0
175.104767 216.0
175.645111 72.0
175.697876 164.0
178.314087 80.0
178.649124 156.0
179.065201 188.0
180.500122 60.0
181.065704 1492.0
181.52037 92.0
182.067337 452.0
185.097015 356.0
185.65448 92.0
186.102249 320.0
189.5802 76.0
191.170242 120.0
191.836792 64.0
194.073456 196.0
197.05162 284.0
198.067123 120.0
211.075089 148.0
213.090424 244.0
214.098923 272.0
214.294098 72.0
224.052597 152.0
234.216324 320.0
237.779236 60.0
332.907867 48.0
354.907196 84.0
367.945831 48.0
383.862915 84.0
407.070343 80.0
419.985229 124.0
468.684662 104.0
524.412231 96.0
636.725098 148.0
639.354431 84.0
645.175293 52.0
720.952393 232.0
790.901794 116.0
871.747192 44.0
876.631531 120.0
917.041138 140.0
929.377991 208.0
959.37207 184.0
960.944763 272.0
964.501892 40.0
966.839783 232.0
994.965088 172.0
1004.114441 124.0
1020.363281 132.0
1021.58429 228.0
1052.812866 164.0
1057.014893 164.0
1057.344849 116.0
1066.321045 176.0
1085.436035 56.0
1090.182251 168.0
1091.556152 68.0
1107.726318 156.0
1112.467773 128.0
1113.450562 148.0
1117.472168 204.0
1128.410522 128.0
1136.293457 212.0
1158.548584 124.0
1159.910645 84.0
1171.34021 156.0
1173.95752 144.0
1197.00354 168.0
1198.270874 212.0
1199.063354 68.0
1199.869873 152.0
1206.864014 132.0
1208.586304 152.0
1209.728271 172.0
1216.917725 100.0
1223.111938 188.0
1224.511475 156.0
1227.250122 176.0
1228.184692 112.0
1229.147461 228.0
1235.162842 180.0
1237.206177 124.0
1239.384399 140.0
1251.740356 232.0
1259.20874 144.0
1261.731323 136.0
1263.974976 248.0
1265.601562 192.0
1270.662231 92.0
1287.239868 204.0
1288.332642 108.0
1289.34729 44.0
1298.023804 164.0
1305.146973 196.0
1307.053101 152.0
1312.123779 152.0
1316.518188 200.0
1323.300903 140.0
1326.647949 76.0
1328.903564 132.0
1333.696533 40.0
1339.241089 132.0
1344.10376 156.0
1346.147705 176.0
1346.775757 208.0
1348.392456 136.0
1350.964355 136.0
1365.311523 204.0
1374.82251 180.0
1378.862305 152.0
1380.037598 144.0
1380.740112 164.0
1385.225586 260.0
1385.499756 140.0
1386.803955 108.0
1388.412842 120.0
1389.703613 156.0
1390.193359 200.0
1394.708984 188.0
1401.980591 176.0
1406.731812 196.0
1408.703247 80.0
1411.386353 160.0
1420.080933 108.0
1431.511963 164.0
1434.179077 88.0
1439.860474 136.0
1456.166748 240.0
1458.978271 160.0
1459.084717 136.0
1464.12207 180.0
1467.474976 108.0
1468.145996 108.0
1468.786621 176.0
1478.428955 116.0
1479.829712 216.0
1491.344482 252.0
1495.359497 132.0
1496.144653 172.0
1497.415161 168.0
