>compound MLS001074953-01!1-Benzyl-2-methylimidazole
>formula C11H12N2
>ionization [M+H]+
>parentmass 173.108078
#inchi InChI=1S/C11H12N2/c1-10-12-7-8-13(10)9-11-5-3-2-4-6-11/h2-8H,9H2,1H3
#inchikey FBHPRUXJQNWTEW
#Ion_Source LC-ESI
#Instrument qTof
#Compound_Source NIH Pharmacologically Active Library
#PI Dorrestein
#Data_Collector VP/LMS
#Scan -1
#Precursor_MZ 173.107
#ExactMass 172.1
#Charge 1
#CAS_Number N/A
#Pubmed_ID N/A
#Smiles Cc1nccn1Cc2ccccc2
#INCHI_AUX N/A
#Library_Class 1
#SpectrumID CCMSLIB00000085028
#IonMode Positive
#UpdateWorkflowName UPDATE-SINGLE-ANNOTATED-GOLD
#LibraryQualityString Gold
#TaskID d252d724072548979f1f6f1ced849daf
##Scan# 1202
#SpectrumFile p3-D11_GD11_01_18268.mzXML
#LibraryName Pharm_Active_Library.mgf
#MQScore -1
#Organism Pharm_Active_Library
#TIC_Query 0
#RT_Query -1
#MZErrorPPM -1
#SharedPeaks 0
#MassDiff 0
#LibMZ -1
#SpecMZ 173.107
#SpecCharge 0
#internalFilename spec-00000.mgf

>collision 10
46.710007 188.0
52.461113 36.0
53.251209 172.0
53.572689 200.0
53.711178 176.0
56.893223 180.0
59.730694 256.0
60.772003 192.0
61.867699 160.0
66.60479 84.0
68.004166 180.0
71.9701 164.0
75.920021 224.0
79.865128 164.0
80.128601 160.0
83.307755 160.0
85.308891 228.0
85.454185 60.0
90.679848 160.0
90.977661 208.0
91.030823 172.0
91.053497 2632.0
91.097305 200.0
91.120102 40.0
91.544281 44.0
92.057831 704.0
102.376259 80.0
105.057953 164.0
114.091171 180.0
116.928543 144.0
117.057709 212.0
120.081032 176.0
127.833839 152.0
134.942154 120.0
144.564285 232.0
145.024124 144.0
172.107635 136.0
173.108078 268.0
174.97081 120.0
280.205017 80.0
574.8927 104.0
777.24408 124.0
810.276428 204.0
847.405396 84.0
854.197937 204.0
904.873901 172.0
982.789551 96.0
983.30127 176.0
988.213013 208.0
1007.584351 156.0
1008.59552 144.0
1054.484741 20.0
1093.712891 224.0
1093.765503 208.0
1099.710938 112.0
1110.303589 148.0
1197.443848 64.0
1291.599976 184.0
1310.956665 124.0
1335.449707 140.0
1339.882935 152.0
1357.080811 104.0
1392.22876 148.0
1403.472778 128.0
1414.889404 200.0
1433.359253 148.0
1450.879639 144.0
1460.105591 240.0
1461.071655 192.0
1464.093506 180.0
1491.116211 148.0
1494.899902 68.0
