>compound Diadzein
>formula C15H10O4 
>ionization [M+H]+
>parentmass 255.065308
#inchi InChI=1S/C15H10O4/c16-10-3-1-9(2-4-10)13-8-19-14-7-11(17)5-6-12(14)15(13)18/h1-8,16-17H
#inchikey ZQSIJRDFPHDXIC
#Ion_Source LC-ESI
#Instrument qTof
#Compound_Source Isolated
#PI Sirenas
#Data_Collector Ed Esquenazi 
#Scan -1
#Precursor_MZ 255.066
#ExactMass 0.0
#Charge 1
#CAS_Number N/A
#Pubmed_ID N/A
#Smiles N/A
#INCHI_AUX N/A
#Library_Class 3
#SpectrumID CCMSLIB00000006049
#IonMode Positive
#UpdateWorkflowName UPDATE-SINGLE-ANNOTATED-BRONZE
#LibraryQualityString Bronze
#TaskID d19310cd93df49b68e9fcbec27720eb5
##Scan# 2
#SpectrumFile Diadzein.mgf
#LibraryName fda_library.mgf
#MQScore -1
#Organism fda_library
#TIC_Query 0
#RT_Query -1
#MZErrorPPM -1
#SharedPeaks 0
#MassDiff 0
#LibMZ -1
#SpecMZ 255.066
#SpecCharge 0
#internalFilename spec-00000.mgf

>collision 10
105.034973 71.373039
109.029602 58.666939
115.050865 74.474068
119.046677 252.394104
119.08078 2.333333
121.025566 50.89447
127.053795 41.456329
127.233589 5.011905
128.062164 39.657661
128.578415 7.388889
129.068497 200.628494
131.047958 118.333397
133.02861 143.899796
134.037308 23.86623
135.198685 6.003205
136.630463 2.333333
136.947815 8.057693
137.023239 1886.936035
137.07254 5.761905
137.085449 47.821812
137.101685 8.3
137.123016 33.3372
137.1474 12.52006
137.202393 12.20833
137.28212 17.44907
137.322632 2.333333
137.392151 9.429762
137.453125 4.002778
137.877502 2.053571
138.040924 3.675926
138.246063 21.277781
138.708511 2.816667
139.450714 7.363095
139.471313 3.802778
141.066116 24.857071
141.123627 6.338542
141.403534 3.226852
143.083908 92.033333
144.102417 7.242816
145.028122 210.828796
145.062592 13.8848
145.693695 3.0
147.04245 67.493462
148.221252 7.493421
149.022461 241.708801
149.123352 4.351191
149.297592 13.00076
149.406006 3.75
152.061584 138.048599
152.337326 2.458333
152.391006 4.7
153.068268 269.414703
153.134872 2.666667
153.21199 18.075001
153.558121 5.041667
155.086227 37.619049
157.063629 303.712006
157.186539 6.444445
157.23291 19.57341
159.041824 31.749319
165.065659 43.370411
166.848694 7.111111
171.040359 24.659321
171.080002 223.1698
171.509933 13.91159
175.042145 53.69006
176.867584 33.024239
180.051239 10.46667
181.064468 712.355225
181.117004 4.791667
181.270355 14.78392
181.298782 2.720238
181.387161 10.16263
181.471649 10.125
181.668533 10.14982
181.75647 7.00463
182.136292 3.148809
182.191162 22.45343
184.0504 146.144104
185.056442 56.506931
189.014099 21.34444
192.856934 17.8985
196.870911 8.03592
197.057083 97.724007
197.813995 2.722222
197.838394 15.88542
197.942673 8.307693
198.009003 9.069445
199.019012 17.74074
199.075516 3374.768066
199.132767 17.52256
199.16243 20.45256
199.208618 14.08333
199.241776 23.417549
199.309296 6.070402
199.355164 19.605619
199.421707 10.48701
199.437012 14.00708
199.461426 22.314569
199.491058 8.109649
199.515854 11.0163
199.548752 38.07748
199.599884 18.520029
199.703262 11.33333
199.830978 10.29643
199.997574 19.739731
200.144928 8.019736
200.752182 14.30303
201.199722 4.001812
201.542831 3.583333
202.739914 18.8375
209.060211 162.141602
211.074219 145.428604
211.16008 5.265351
211.2052 19.408331
211.37207 18.0
211.455536 10.04167
211.701279 19.646099
212.050354 7.761905
213.247604 4.734848
213.298782 16.17754
225.624893 6.349638
225.833954 7.002193
226.304733 11.35
227.07045 1451.802979
227.13237 6.335
227.184799 10.125
227.218124 3.005953
227.247238 8.41523
227.300171 4.694444
227.457596 10.10227
227.547287 15.60494
227.567764 2.4
227.64122 5.35307
227.798416 17.532351
227.869614 2.541667
227.956085 35.758591
228.790405 7.816667
235.828308 7.338889
237.056778 399.043488
237.122437 15.88117
237.368729 4.6875
237.589249 6.355556
237.719604 10.15705
237.798431 14.66667
237.830612 3.355392
251.024353 9.380815
251.173462 3.490385
252.35466 20.200491
253.305786 16.04344
253.441055 31.31115
253.456329 32.35527
253.505692 19.383329
253.533005 18.77154
253.563309 48.148769
253.616501 5.265351
253.634415 39.979698
253.657364 9.745098
253.674103 25.5404
253.690765 95.422592
253.721634 84.352577
253.743515 12.25
253.769287 25.929079
253.857498 9.46558
253.881287 20.556311
253.914032 96.039726
253.992935 12.00126
254.075821 55.829781
254.10939 8.0
254.197891 6.42803
254.296402 8.458333
254.341171 9.844298
254.3974 11.22715
254.425598 15.75758
254.509903 36.313759
254.540588 20.719021
254.614334 29.2894
254.736282 8.070402
254.780853 15.73982
254.802536 13.35526
254.968658 44.088161
255.010376 60.227779
255.027481 165.597794
255.065308 29831.070312
255.131424 127.663101
255.171524 11.81818
255.192474 18.56818
255.209076 10.33712
255.239471 74.995537
255.289688 205.204102
255.318451 76.136543
255.34256 12.27339
255.371033 91.293877
255.392639 96.410606
255.410141 56.8876
255.436523 18.0151
255.455032 49.182968
255.482651 35.056221
255.549835 45.404369
255.577698 16.168859
255.599899 17.951389
255.618591 39.957378
255.652191 52.03418
255.771973 42.21851
255.812149 76.995529
255.833496 31.730591
255.937363 34.008339
255.964462 58.39196
256.217621 16.521339
256.406494 41.0019
256.429504 30.029591
256.574615 19.473261
256.628174 23.042549
257.020477 10.00595
257.110413 9.218137
257.196533 11.34722
257.23172 31.23941
257.316498 3.25
257.331268 18.085939
257.436005 14.78241
257.599915 22.074329
257.676361 5.670455
258.181488 15.42803
258.454132 24.288099
259.080048 15.73611
266.791504 19.329639
290.294952 6.44079
328.052338 19.04986
421.715607 11.70833
765.410217 4.335784
1587.642334 13.36458
1588.224487 11.71204
1655.970581 10.64651
