>compound Ammonium Glycyrrhizinate (AMGZ)
>formula C42H62O16
>ionization [M+Na]+
>parentmass 845.3930066040905
#inchi InChI=1S/C42H62O16/c1-37(2)21-8-11-42(7)31(20(43)16-18-19-17-39(4,36(53)54)13-12-38(19,3)14-15-41(18,42)6)40(21,5)10-9-22(37)55-35-30(26(47)25(46)29(57-35)33(51)52)58-34-27(48)23(44)24(45)28(56-34)32(49)50/h16,19,21-31,34-35,44-48H,8-15,17H2,1-7H3,(H,49,50)(H,51,52)(H,53,54)/t19-,21-,22-,23-,24-,25-,26-,27+,28-,29-,30-,31+,34-,35-,38+,39-,40+,41+,42+/m0/s1
#inchikey LPLVUJXQOOQHMX
#origInchi InChI=1S/C42H62O16.H3N/c1-37(2)21-8-11-42(7)31(20(43)16-18-19-17-39(4,36(53)54)13-12-38(19,3)14-15-41(18,42)6)40(21,5)10-9-22(37)55-35-30(26(47)25(46)29(57-35)33(51)52)58-34-27(48)23(44)24(45)28(56-34)32(49)50;/h16,19,21-31,34-35,44-48H,8-15,17H2,1-7H3,(H,49,50)(H,51,52)(H,53,54);1H3/t19-,21-,22-,23-,24-,25-,26-,27+,28-,29-,30-,31+,34-,35-,38+,39-,40+,41+,42+;/m0./s1
#Ion_Source LC-ESI
#Instrument qTof
#Compound_Source Commercial
#PI Dorrestein
#Data_Collector Garg_Neha
#Scan -1
#Precursor_MZ 845.393
#ExactMass 822.404
#Charge 1
#CAS_Number 1407-03-0
#Pubmed_ID N/A
#Smiles [C@@]1(CC[C@]2([C@@](C1)(C3[C@@](CC2)([C@]4([C@](C(C=3)=O)([C@]5([C@@](CC4)(C([C@H](CC5)O[C@]6(O[C@@H]([C@H]([C@@H]([C@@H]6O[C@]7([C@@H]([C@H]([C@@H]([C@H](O7)C(=O)O)O)O)O)[H])O)O)C(O)=O)[H])(C)C)[H])C)[H])C)C)[H])C)(C)C(O)=O.N
#INCHI_AUX N/A
#Library_Class 1
#SpectrumID CCMSLIB00000078464
#IonMode Positive
#UpdateWorkflowName UPDATE-SINGLE-ANNOTATED-GOLD
#LibraryQualityString Gold
#TaskID 77f51c88eb8b467eb4a01dd2d0cb90d2
##Scan# 1206
#SpectrumFile Plate7_21_40_GD3_01_15768.mzXML
#LibraryName FDALibrary_2_04302014.mgf
#MQScore -1
#Organism FDALibrary_2_04302014
#TIC_Query 0
#RT_Query -1
#MZErrorPPM -1
#SharedPeaks 0
#MassDiff 0
#LibMZ -1
#SpecMZ 845.393
#SpecCharge 0
#internalFilename spec-00000.mgf

>collision 10
51.282597 180.0
64.614944 152.0
99.315315 180.0
102.796646 152.0
115.98024 216.0
119.006691 264.0
120.010399 156.0
121.100609 176.0
126.857849 180.0
137.024277 316.0
155.026413 152.0
157.009521 292.0
159.031906 208.0
163.00145 188.0
163.146957 152.0
178.472382 140.0
181.010086 300.0
189.159973 168.0
199.018677 2200.0
199.145889 192.0
200.017242 148.0
201.023743 216.0
201.466568 120.0
217.029358 564.0
218.779938 216.0
225.158234 168.0
240.048706 192.0
240.820267 172.0
241.194138 240.0
242.611938 176.0
247.209366 152.0
247.845032 180.0
268.996185 156.0
274.198425 176.0
283.04483 716.0
290.182007 156.0
290.996307 152.0
291.201355 112.0
297.208466 156.0
302.99408 144.0
309.132843 152.0
313.053192 124.0
314.051514 192.0
314.665558 232.0
320.218811 156.0
347.054718 152.0
350.97345 192.0
355.755005 148.0
357.040039 1044.0
358.029846 140.0
367.011047 164.0
368.786255 148.0
371.259552 164.0
375.052917 5848.0
376.062134 1416.0
377.05484 668.0
378.051453 140.0
379.050568 160.0
379.325745 148.0
389.323212 208.0
393.059448 380.0
395.049347 172.0
407.322357 236.0
408.326538 108.0
415.003845 140.0
417.297882 212.0
427.006042 184.0
435.217407 140.0
435.320587 152.0
439.354523 216.0
453.336121 1076.0
454.333496 240.0
470.840668 124.0
471.347504 1336.0
472.345215 592.0
472.396606 124.0
473.34024 104.0
475.236298 200.0
475.317047 600.0
476.326752 296.0
477.325592 160.0
489.349976 180.0
491.381805 180.0
493.329376 6044.0
493.478546 220.0
493.541656 156.0
493.59317 160.0
494.327942 2536.0
495.330963 472.0
496.332764 152.0
509.794861 144.0
511.278931 164.0
511.335754 2976.0
512.338501 1176.0
512.622742 132.0
513.350769 300.0
528.313232 148.0
535.34375 296.0
546.284729 120.0
565.309021 140.0
567.274597 164.0
570.312622 144.0
582.343933 140.0
597.289673 156.0
602.290894 164.0
606.327454 148.0
607.368835 168.0
634.29895 184.0
643.293396 160.0
645.294067 140.0
647.366943 416.0
653.333679 104.0
653.795715 184.0
657.306885 164.0
658.781921 124.0
666.348328 384.0
666.846313 188.0
667.860596 108.0
668.720032 216.0
669.360901 3912.0
670.131042 280.0
670.362427 1788.0
671.368347 528.0
672.372131 168.0
704.322815 188.0
743.299072 144.0
745.362549 140.0
754.377502 112.0
754.870056 248.0
755.37677 328.0
756.368469 160.0
759.305359 140.0
762.857971 204.0
800.5802 136.0
813.669556 172.0
823.407532 140.0
824.406738 328.0
840.402771 160.0
842.39679 136.0
843.403809 116.0
844.369385 160.0
844.443298 104.0
845.390137 12616.0
846.39502 5088.0
846.571167 104.0
846.785645 132.0
847.393433 2648.0
847.503784 116.0
848.384155 284.0
849.401001 208.0
850.421875 120.0
850.718506 200.0
851.061035 156.0
851.374573 140.0
861.367249 200.0
862.350708 112.0
867.382751 96.0
868.378723 180.0
1037.349976 112.0
1211.411255 172.0
1213.444458 240.0
1214.454712 104.0
1239.791138 256.0
1587.43335 140.0
1952.442017 164.0
