>compound Orlistat
>formula C29H53NO5 
>ionization [M+H]+
>parentmass 496.4
#inchi InChI=1S/C29H53NO5/c1-5-7-9-11-12-13-14-15-16-18-24(34-29(33)26(30-22-31)20-23(3)4)21-27-25(28(32)35-27)19-17-10-8-6-2/h22-27H,5-21H2,1-4H3,(H,30,31)/t24-,25-,26-,27-/m0/s1
#inchikey AHLBNYSZXLDEJQ
#Ion_Source LC-ESI
#Instrument qTof
#Compound_Source Isolated
#PI Sirenas
#Data_Collector Ed Esquenazi 
#Scan -1
#Precursor_MZ 496.4
#ExactMass 0.0
#Charge 1
#CAS_Number N/A
#Pubmed_ID N/A
#Smiles N/A
#INCHI_AUX N/A
#Library_Class 3
#SpectrumID CCMSLIB00000005926
#IonMode Positive
#UpdateWorkflowName UPDATE-SINGLE-ANNOTATED-BRONZE
#LibraryQualityString Bronze
#TaskID d19310cd93df49b68e9fcbec27720eb5
##Scan# 5
#SpectrumFile Orlistat.mgf
#LibraryName fda_library.mgf
#MQScore -1
#Organism fda_library
#TIC_Query 0
#RT_Query -1
#MZErrorPPM -1
#SharedPeaks 0
#MassDiff 0
#LibMZ -1
#SpecMZ 496.4
#SpecCharge 0
#internalFilename spec-00000.mgf

>collision 10
105.069 171.610001
107.085922 21.88068
109.100822 305.694397
109.266342 13.80625
109.506203 19.766451
111.114586 88.722237
111.128563 14.86422
113.093063 44.822498
114.090874 1227.087036
114.224541 16.38068
114.275406 13.12348
114.327477 12.73684
114.342438 16.640989
114.468872 12.575
114.617805 10.1875
114.669952 14.15625
116.637962 17.625
120.234482 15.15434
121.101486 79.542053
123.115723 257.599213
124.118874 128.160599
124.141472 12.04545
125.13118 124.056801
132.100235 282.074188
137.131714 168.743195
142.085632 408.014404
142.282501 30.78125
147.110352 97.657944
148.123306 67.00914
149.204865 11.50169
151.146149 170.838501
151.484879 25.375
151.51799 24.114389
153.162537 59.328018
153.726028 10.61343
159.170731 17.231421
160.096848 822.429626
163.146561 94.243797
165.168198 15.63281
165.476318 17.505951
167.137985 118.955902
169.160416 65.583054
175.141144 22.50169
179.139618 153.921204
179.175537 58.112499
191.177643 140.017899
193.158295 35.201389
193.191681 240.974197
194.016876 12.50417
203.179718 14.14464
207.208221 123.567596
211.200073 43.28125
211.389374 12.89286
218.194885 30.097561
219.209122 15.52083
221.186295 23.337959
231.205017 28.441179
235.207199 40.74107
237.017044 11.55388
245.225082 102.480797
249.21283 75.481621
291.301788 115.248497
299.506989 11.8375
301.288879 323.60199
316.983032 28.777889
317.595062 13.0
317.615082 28.004169
319.252747 83.562866
319.298798 1170.35498
319.588898 10.5625
319.880798 22.04018
319.951263 12.6025
320.061157 16.560049
320.827148 12.50169
320.952118 57.192749
322.667999 11.50145
335.55368 17.28125
337.309143 181.579697
521.627502 14.6098
957.483154 13.05357
