>compound Lopinavir
>formula C37H48N4O5 
>ionization [M+H]+
>parentmass 629.3697470880905
#inchi InChI=1S/C37H48N4O5/c1-25(2)34(41-20-12-19-38-37(41)45)36(44)39-30(21-28-15-7-5-8-16-28)23-32(42)31(22-29-17-9-6-10-18-29)40-33(43)24-46-35-26(3)13-11-14-27(35)4/h5-11,13-18,25,30-32,34,42H,12,19-24H2,1-4H3,(H,38,45)(H,39,44)(H,40,43)/t30-,31-,32-,34-/m0/s1
#inchikey KJHKTHWMRKYKJE
#Ion_Source LC-ESI
#Instrument qTof
#Compound_Source Isolated
#PI Sirenas
#Data_Collector Ed Esquenazi 
#Scan -1
#Precursor_MZ 629.371
#ExactMass 0.0
#Charge 1
#CAS_Number N/A
#Pubmed_ID N/A
#Smiles N/A
#INCHI_AUX N/A
#Library_Class 3
#SpectrumID CCMSLIB00000006306
#IonMode Positive
#UpdateWorkflowName UPDATE-SINGLE-ANNOTATED-BRONZE
#LibraryQualityString Bronze
#TaskID d19310cd93df49b68e9fcbec27720eb5
##Scan# 2
#SpectrumFile Lopinavir.mgf
#LibraryName fda_library.mgf
#MQScore -1
#Organism fda_library
#TIC_Query 0
#RT_Query -1
#MZErrorPPM -1
#SharedPeaks 0
#MassDiff 0
#LibMZ -1
#SpecMZ 629.371
#SpecCharge 0
#internalFilename spec-00000.mgf

>collision 10
101.072159 27.753599
103.052895 184.376907
105.069588 89.910889
110.058296 38.077759
111.058174 66.058189
112.109985 167.888107
112.115944 79.271057
113.07003 146.931198
113.913689 14.01389
114.669418 30.7383
117.068977 290.718109
117.424553 18.948099
118.428635 110.469803
119.384918 18.11846
119.391602 11.05833
119.406982 24.659941
119.414116 9.35307
119.458504 11.375
119.474907 9.853395
119.490753 19.71204
119.501778 15.33468
119.519928 14.5641
119.551331 7.135
119.619774 13.68116
119.684074 9.594136
119.710655 15.09643
119.756653 9.0625
119.795052 15.16964
119.938324 18.777781
119.966263 11.00097
120.080521 18726.289062
120.127129 21.021509
120.168427 10.45588
120.178009 29.112181
120.187599 19.17572
120.202698 15.69487
120.210258 7.975613
120.223831 66.362549
120.237137 18.57209
120.267952 11.46833
120.27951 16.078489
120.294182 12.53086
120.317978 76.157402
120.340767 8.595239
120.356331 13.41223
120.366867 14.58333
120.39225 41.60025
120.43264 19.655701
120.485687 32.0089
120.500313 13.00085
120.530861 16.00062
120.540756 35.78336
120.565247 22.377661
120.578712 8.333333
120.634254 53.486111
120.653114 5.742284
120.690353 9.777778
120.730347 10.74405
120.878677 17.42979
120.897865 18.443569
120.959007 11.71111
121.001221 23.66987
121.307434 15.66954
121.676064 8.148809
121.69487 6.380208
121.825813 8.518678
121.963486 11.6796
122.636803 9.047481
123.006905 11.37745
124.807892 43.333858
124.890686 21.746889
128.058487 25.158331
129.068237 256.416199
131.047165 59.49612
131.084625 390.372986
131.410324 35.771389
132.077332 66.00721
132.545425 10.02541
134.451096 33.457359
134.477371 36.339291
135.079346 278.46991
135.188385 3.047619
135.393143 8.066667
139.865234 84.699997
140.957886 42.411861
143.084137 9.950757
143.329956 9.013888
143.744659 8.583333
144.083969 25.9671
145.097076 15.34205
146.093582 40.819229
148.113327 125.344101
152.929489 11.875
153.806717 10.59572
153.98024 3.640152
154.179977 7.640152
154.193146 22.334299
154.216736 17.13043
154.246094 58.311611
154.273438 53.846191
154.286606 26.48333
154.296036 10.38075
154.311874 15.67738
154.324554 19.33621
154.341248 90.072639
154.360001 25.822571
154.393555 6.684524
154.402283 12.75788
154.410919 25.006411
154.437119 114.885803
154.449326 27.361271
154.458832 15.42014
154.46875 18.300289
154.492996 11.00962
154.515564 16.370449
154.531921 14.32527
154.562332 58.46627
154.649139 17.085939
154.67067 29.793171
154.685013 10.66945
154.704941 14.13993
154.730988 33.002449
154.826706 16.16379
154.886734 16.66964
154.904144 15.69907
155.080811 92.555946
155.117752 42001.671875
155.186783 12.37306
155.202194 12.72024
155.247589 23.336109
155.30632 35.615841
155.337555 139.621094
155.356689 24.574539
155.375946 128.541
155.396225 87.620377
155.419312 59.651039
155.47084 104.797203
155.482925 104.352898
155.499161 35.044189
155.517166 41.516338
155.531998 48.28846
155.543991 18.48333
155.554291 62.618969
155.567032 50.870331
155.600189 16.5625
155.611694 43.464931
155.639801 33.24704
155.653839 17.02216
155.680817 74.742302
155.727158 35.80405
155.747818 21.16667
155.771042 56.686611
155.779922 19.110291
155.79303 22.61335
155.827682 11.60333
155.940445 54.797951
155.962891 56.96994
156.092697 11.39951
156.157761 12.19032
156.496704 26.423059
156.601639 11.00397
156.627762 9.003968
156.643158 15.2549
156.823761 10.28004
157.20787 31.894171
157.246658 7.921875
157.323135 14.46558
157.399353 10.01293
157.639893 25.68247
157.941025 16.852369
158.094315 187.472397
158.527023 10.36667
158.745239 5.518939
158.983704 5.633333
159.461975 21.48148
161.117844 8.724999
161.214996 11.83681
162.203186 16.42942
163.073639 14.57341
165.456482 18.339279
170.09671 28.3871
172.112381 120.379997
179.535477 17.33404
180.080673 94.433739
180.100266 739.754578
180.191177 41.414181
180.241791 14.24492
180.39653 13.0
180.412888 8.380815
180.492401 9.1875
181.211792 21.20167
181.414246 6.340278
181.471466 10.00694
181.565613 14.46759
181.91124 8.435897
181.935532 17.34483
181.985962 53.74979
181.995743 5.395833
182.014435 128.312302
182.030685 54.336151
182.046936 243.341797
182.06395 19.820511
182.079102 304.850891
182.117401 169.527298
182.153397 114.072701
182.177689 88.902519
182.20311 142.369797
182.21933 112.116699
182.240173 43.053329
182.250763 26.3337
182.262787 73.950256
182.279984 28.1901
182.291183 19.68421
182.31514 48.22337
182.343811 127.841599
182.364609 37.878792
182.387466 173.023697
182.411163 95.367928
182.430191 22.836309
182.448517 13.075
182.459915 29.42803
182.471375 85.313797
182.518814 79.815727
182.591003 60.43523
182.606918 30.09918
182.652023 61.422531
182.680161 53.740108
182.69313 39.045181
182.745651 46.84058
182.786987 16.870831
182.805298 35.290771
182.829071 51.48708
182.865479 27.51557
182.899368 18.14011
182.974823 37.776272
182.990402 19.259411
183.113037 191612.296875
183.367752 35.921291
183.447449 32.477001
183.501907 47.134312
183.534119 168.707199
183.555466 132.135696
183.570221 123.287201
183.595642 44.909168
183.628281 222.908295
183.639435 79.809143
183.661972 143.190994
183.687851 103.623901
183.708466 85.189636
183.731415 84.134483
183.75119 170.434097
183.76149 61.198582
183.804398 195.005493
183.833572 76.47493
183.847427 49.51955
183.868668 43.135891
183.879105 104.275703
183.892014 17.67742
183.903625 26.889231
183.914948 17.89855
183.935638 77.538437
183.956116 58.596581
183.973221 38.8461
184.04335 12.01894
184.088226 103.175301
184.175049 35.128632
184.337341 40.366539
184.365936 84.814796
184.393692 22.69982
184.409164 64.26963
184.472702 37.404942
184.487579 52.48925
184.618515 8.272727
184.781296 20.30242
184.842178 56.770439
184.918655 12.41667
185.054382 18.5994
185.06842 2.027778
185.158508 12.69551
185.182175 17.493891
185.303345 12.90675
185.458542 22.98181
185.726974 7.395833
185.768265 6.002778
185.812347 8.712037
186.040649 10.78914
186.078003 14.01333
186.296371 10.33667
186.30603 15.34405
186.429764 42.38073
186.467819 16.218941
186.481735 28.055559
186.505371 14.67539
186.597443 11.02083
186.676422 2.337963
186.719238 7.921875
186.802917 22.71377
187.023575 13.04012
187.223114 11.01071
187.271469 7.88587
187.385315 12.82036
187.485336 9.704166
187.661758 10.41667
187.966766 12.69714
188.106049 42.94281
188.282257 17.383329
188.76413 8.009616
189.331726 7.453703
190.7444 9.338889
190.789047 8.333333
191.450211 2.333333
191.715012 9.755555
192.172272 14.0496
196.045578 11.3447
206.80191 19.2192
218.120224 9.716666
218.675446 15.72
233.131348 424.912811
246.512405 11.36915
248.715485 39.907459
248.981918 8.335318
250.07019 20.279011
250.158417 2143.875
250.224106 8.455882
250.251617 10.0
250.366486 5.678764
250.391006 3.6
250.661011 13.5375
250.794785 11.25379
250.808044 24.021799
250.912964 17.03141
250.931015 11.83333
251.08017 20.33404
251.145844 47.39069
251.398331 12.74242
252.138458 41.60088
253.985718 14.34375
256.470673 13.41223
263.165344 17.669359
280.165894 74.256973
282.14624 133.378906
282.180023 24.08333
283.645569 9.081667
289.163086 122.524803
289.762238 22.77524
291.183289 45.333591
292.472687 9.344048
292.855316 33.427181
294.148407 74.420097
296.16272 35.069439
308.156342 21.27899
308.188751 25.548981
308.243713 11.67029
308.378326 11.45833
308.534393 17.66667
308.860901 18.733509
309.411407 7.334677
310.135101 40.44067
310.179657 7255.709961
310.254395 33.777771
310.311615 17.48576
310.347534 34.538589
310.389709 47.803719
310.42807 13.00287
310.452972 9.605556
310.477112 11.68421
310.496979 10.08333
310.513824 38.409519
310.536072 25.5942
310.562714 8.033334
310.599731 8.560185
310.691681 9.667683
310.740692 27.33573
310.782013 53.441669
310.80835 19.3382
310.925232 11.90476
310.993958 10.68056
311.114929 12.33446
311.483215 14.70127
311.66748 6.482143
312.15921 166.940704
312.312653 11.56944
313.383331 10.3346
316.546051 2.375
321.710419 13.46667
326.197968 23.373739
340.70694 14.04445
347.59259 85.324997
366.490295 7.013889
383.172607 8.712037
384.169586 48.11747
384.230591 1162.906006
384.747314 12.71011
385.102234 7.737069
392.248138 10.36667
394.219788 20.375
405.280914 12.33446
409.81781 9.338235
409.87674 27.37339
410.353241 8.673077
410.924225 12.82315
411.240784 178.959503
412.226715 2905.562988
412.321381 8.716269
412.398773 41.201672
412.435211 22.084999
412.560913 19.165251
412.771637 10.02206
412.791443 24.72024
413.084961 19.406401
413.188049 19.16346
413.495392 8.980392
413.81424 9.490196
414.358856 11.40833
425.178497 7.656609
425.530548 19.967899
425.741089 10.29784
426.153046 8.844298
426.337463 43.661751
426.396301 26.871031
426.419861 100.159798
426.457916 111.213898
426.516998 227.127502
426.562286 116.178398
426.626587 57.72757
426.648651 65.45594
426.69342 114.650101
426.742706 122.058701
426.771851 20.674999
426.799438 100.136299
426.844635 100.126701
426.87973 58.721149
426.937744 32.011452
427.076538 84.499817
427.171478 122.588799
427.211578 15.16594
427.372742 30.414339
427.476837 13.52466
427.498383 10.33488
427.543304 43.716991
427.604645 46.992432
427.826965 62.450001
427.914856 43.837791
428.016754 18.838711
428.232391 37.208691
428.516754 84.190338
428.595642 32.76136
428.632141 95.985924
428.887756 6.007576
428.948608 12.2549
429.25412 76597.898438
429.343964 270.006195
429.435608 44.778702
429.478821 12.04412
429.576874 159.615494
429.680817 55.95665
429.720642 25.213011
429.76944 41.16806
429.796844 128.308701
429.854065 7.680555
429.911438 109.430801
429.954742 261.998688
430.040344 222.012207
430.101257 24.868111
430.153076 173.768005
430.369446 48.197849
430.431671 166.012497
430.601746 42.875259
430.642181 72.639
430.661987 14.70692
430.768036 63.205029
430.852905 81.531807
430.986969 14.89648
431.110443 81.309769
431.23526 177.747299
431.28299 52.81213
431.579559 59.385929
431.675385 18.485609
431.796143 13.78677
431.929871 64.412231
432.001099 53.82885
432.209625 10.77412
432.56134 27.95833
432.712585 13.60606
432.73526 9.700757
432.879242 23.449829
433.634491 49.364262
433.969055 20.8866
434.293732 8.683333
434.549011 10.74405
435.091583 21.063829
435.287659 21.067221
436.90033 3.66886
437.766541 23.57341
438.880615 15.48214
439.160583 8.541667
439.857605 8.109649
441.003357 9.605556
441.471527 11.70833
442.115021 9.001543
443.987549 14.12927
444.092224 9.667792
444.169464 30.766769
444.220245 66.634819
444.256775 47.80088
444.291779 130.629303
444.337891 100.974197
444.375946 77.495857
444.417145 100.558998
444.454224 97.060509
444.494843 14.37879
444.518127 260.3013
444.557434 190.921402
444.579346 94.053017
444.621277 151.916397
444.66626 139.300705
444.698547 97.510887
444.724335 50.0
444.764313 155.465103
444.821045 164.776596
444.883698 244.198303
444.937103 115.683701
445.472412 70.94976
445.599152 64.827583
445.788666 28.82946
446.183655 10.14881
446.280823 36.629631
446.398651 31.58333
446.526703 23.98687
446.62262 30.528971
446.698486 20.803419
446.742737 16.69187
446.801117 21.038521
446.894531 32.161362
447.028107 138.134796
447.077271 47.8423
447.103973 214.590103
447.162476 305.621613
447.207855 152.161896
447.264832 114979.296875
447.46756 56.93211
447.541321 21.37495
447.760376 32.642769
447.843018 142.488205
447.892792 72.972672
447.938354 260.564606
447.99353 377.2435
448.069519 237.858002
448.140778 259.025513
448.361816 235.662003
448.397888 272.493103
448.513031 106.429298
448.547943 122.058197
448.574493 70.977203
448.675781 93.206093
448.704834 92.443192
448.74234 99.929916
448.78183 87.931396
449.224335 46.770802
449.30188 161.975693
449.441681 12.5
449.823212 14.86404
449.902771 11.37778
450.175842 12.33333
450.271301 8.65661
450.419434 13.68632
450.471069 30.758869
450.602448 20.96015
451.14328 10.00079
451.366425 16.994301
451.394562 11.35874
451.498047 9.66793
451.551575 20.592859
451.730072 11.3952
451.788055 13.46897
452.496582 12.875
452.607544 15.6686
452.911041 4.675
453.184845 17.54438
453.313538 19.78232
453.355377 13.6674
453.506744 9.631173
454.13327 8.684524
454.845459 14.08333
455.558136 15.80064
456.09198 10.88095
456.977325 8.213384
457.658417 11.46558
457.848328 8.755208
458.649445 9.068334
460.755585 8.755555
460.89743 10.72803
462.774963 8.148809
464.085266 23.053341
473.105011 10.18939
476.423462 10.49342
498.292694 12.04167
505.202057 22.111111
516.019836 13.11204
522.201233 10.51894
545.672974 13.81667
607.200134 23.15045
607.250977 16.143709
607.336914 42.022171
607.405579 13.8442
607.454163 19.964911
607.519531 4.669445
607.585938 23.04167
607.774414 8.667517
607.884949 45.599548
608.133423 27.283039
608.581055 29.200001
608.649536 12.38081
608.811768 29.021151
608.968079 10.80167
609.259033 6.371913
609.516968 38.411339
610.040649 9.403735
610.24707 7.019737
610.393066 13.225
610.436951 12.87093
611.046387 8.755555
611.282532 12.62976
611.359131 12154.629883
611.45929 10.85714
611.494934 212.969498
611.567383 176.225296
611.610168 25.87681
611.654297 124.432999
611.69281 62.98922
611.732483 81.378593
611.778198 70.008347
611.806641 76.903343
611.898743 117.7463
612.036743 14.36694
612.455322 32.94175
612.860168 20.361111
613.04303 20.83568
613.157471 15.27902
613.219604 30.882839
613.403076 17.85507
613.425964 30.918751
613.623291 17.79583
614.234558 77.571373
615.086365 37.279709
615.718811 6.002778
616.934021 9.074074
617.798523 8.284091
620.871887 11.66755
621.305359 10.00915
625.227417 17.63377
628.742432 18.39683
629.206421 45.289558
629.36676 1055.774048
629.439636 13.03922
629.74469 75.48893
629.915894 11.38075
630.048279 53.243099
630.271484 49.35091
630.915039 12.20119
707.893738 30.77137
757.868347 13.0121
818.82782 19.361111
874.195557 10.80474
1109.872314 35.10075
1267.544312 28.103451
1353.963867 9.066667
