>compound Sulfameter
>formula C11H12N4O3S 
>ionization [M+H]+
>parentmass 281.070282
#inchi InChI=1S/C11H12N4O3S/c1-18-9-6-13-11(14-7-9)15-19(16,17)10-4-2-8(12)3-5-10/h2-7H,12H2,1H3,(H,13,14,15)
#inchikey GPTONYMQFTZPKC
#Ion_Source LC-ESI
#Instrument qTof
#Compound_Source Isolated
#PI Sirenas
#Data_Collector Ed Esquenazi 
#Scan -1
#Precursor_MZ 281.071
#ExactMass 0.0
#Charge 1
#CAS_Number N/A
#Pubmed_ID N/A
#Smiles N/A
#INCHI_AUX N/A
#Library_Class 3
#SpectrumID CCMSLIB00000004312
#IonMode Positive
#UpdateWorkflowName UPDATE-SINGLE-ANNOTATED-BRONZE
#LibraryQualityString Bronze
#TaskID d19310cd93df49b68e9fcbec27720eb5
##Scan# 2
#SpectrumFile Sulfameter.mgf
#LibraryName fda_library.mgf
#MQScore -1
#Organism fda_library
#TIC_Query 0
#RT_Query -1
#MZErrorPPM -1
#SharedPeaks 0
#MassDiff 0
#LibMZ -1
#SpecMZ 281.071
#SpecCharge 0
#internalFilename spec-00000.mgf

>collision 10
107.429886 58.084789
107.655762 46.328419
108.044678 19865.970703
108.178047 41.365318
108.280769 36.38129
108.391754 30.98822
108.497475 29.23645
108.562271 41.821869
109.02607 257.235809
110.034515 220.434204
111.043167 182.226196
118.06543 43.979172
124.049751 1034.166016
124.431122 42.43103
125.058456 1591.713989
125.403145 32.57785
125.477036 33.735649
125.484299 31.57222
126.066315 16398.0
126.212898 30.293289
126.249756 36.478241
126.353584 32.719688
128.012451 42.652382
131.06282 37.059181
143.058746 36.294109
155.172165 29.89855
155.231155 37.334438
155.285294 47.76609
155.31456 48.683769
155.68251 51.4244
156.011581 26902.0
156.388611 33.896999
156.399033 35.652748
156.427826 48.611401
156.487427 61.807529
156.555801 34.872959
156.625229 49.889709
156.642944 28.673691
156.756012 40.73204
158.072449 114.315903
163.082764 27.323429
172.073929 255.261398
185.057724 230.409805
185.076584 57.03653
188.012436 5734.655762
188.081726 58.14986
188.109436 33.2328
188.20932 43.217258
188.265732 48.457481
190.096756 169.249603
200.07254 540.755005
202.082596 74.102783
213.475296 27.34412
215.092438 8636.646484
215.155472 28.519291
215.178802 46.460602
215.243225 29.643681
215.27298 27.88698
215.457504 36.218781
215.472748 55.107021
215.50444 32.386009
215.552872 42.152561
217.108597 734.871582
263.058014 50.295071
281.070282 4336.219238
