>compound 2-[2,3-dichloro-4-(2-methylidenebutanoyl)phenoxy]acetic acid
>formula C13H12Cl2O4 
>ionization [M+H]+
>parentmass 303.01854067609054
#inchi InChI=1S/C13H12Cl2O4/c1-3-7(2)13(18)8-4-5-9(12(15)11(8)14)19-6-10(16)17/h4-5H,2-3,6H2,1H3,(H,16,17)
#inchikey AVOLMBLBETYQHX
#Ion_Source LC-ESI
#Instrument qTof
#Compound_Source Commercial
#PI Dorrestein
#Data_Collector Garg_Neha
#Scan -1
#Precursor_MZ 303.019
#ExactMass 302.011
#Charge 1
#CAS_Number N/A
#Pubmed_ID N/A
#Smiles N/A
#INCHI_AUX N/A
#Library_Class 1
#SpectrumID CCMSLIB00000076981
#IonMode Positive
#UpdateWorkflowName UPDATE-SINGLE-ANNOTATED-GOLD
#LibraryQualityString Gold
#TaskID 48f7f52fc6d249b5abbcc6e7b3df5969
##Scan# 1670
#SpectrumFile NCP002928_C2_D11_BA3_01_15697.mzXML
#LibraryName NIH_Clinical_Collection_2.mgf
#MQScore -1
#Organism NIHcollection2_04212014_2_mgf
#TIC_Query 0
#RT_Query -1
#MZErrorPPM -1
#SharedPeaks 0
#MassDiff 0
#LibMZ -1
#SpecMZ 303.019
#SpecCharge 0
#internalFilename spec-00000.mgf

>collision 10
44.990322 252.0
46.259407 168.0
46.681374 144.0
50.111965 148.0
50.636055 184.0
51.663792 168.0
53.085449 180.0
56.889778 212.0
59.185326 184.0
59.494808 136.0
59.888695 184.0
62.50589 148.0
65.021675 148.0
68.156075 240.0
69.958878 200.0
70.64476 220.0
71.26844 148.0
73.278557 148.0
75.28727 152.0
76.016083 176.0
79.689697 176.0
80.186188 200.0
81.286026 236.0
83.030533 168.0
91.483673 148.0
92.36338 176.0
93.493469 168.0
93.535812 140.0
95.19857 160.0
98.045082 156.0
98.356712 180.0
99.266808 260.0
103.928825 168.0
106.425163 204.0
110.472969 148.0
112.081223 148.0
113.090691 152.0
114.9823 152.0
115.051895 616.0
115.636299 196.0
116.06012 184.0
116.926186 168.0
117.071724 200.0
118.990555 144.0
120.440903 140.0
121.375397 200.0
123.314896 268.0
124.546829 140.0
125.019531 304.0
126.021614 144.0
126.043953 220.0
127.011833 376.0
127.065353 180.0
128.060532 860.0
128.08107 212.0
128.468796 200.0
129.070908 692.0
129.110275 164.0
130.076523 896.0
131.046341 328.0
131.085297 196.0
132.965149 296.0
133.07074 156.0
134.629639 168.0
134.950836 164.0
137.985016 164.0
138.886612 216.0
139.033218 164.0
141.069931 912.0
141.98819 176.0
142.072357 116.0
143.048981 108.0
143.255096 160.0
144.057404 396.0
145.066101 308.0
145.563141 156.0
146.071213 372.0
146.973709 176.0
149.017181 356.0
150.023422 228.0
150.04921 148.0
150.088226 172.0
150.429794 140.0
151.030945 624.0
151.368637 200.0
151.679794 192.0
152.027573 240.0
153.031967 248.0
156.056976 240.0
157.06337 268.0
157.187836 212.0
157.439957 196.0
158.07608 528.0
158.976074 292.0
159.034805 184.0
159.080582 672.0
160.042892 176.0
160.085693 232.0
160.972488 412.0
161.056198 188.0
162.028091 192.0
163.029892 548.0
164.037628 268.0
164.145355 164.0
165.011124 776.0
165.047592 1096.0
165.832657 144.0
166.017303 724.0
166.04808 196.0
167.005081 152.0
167.022812 404.0
167.043106 588.0
168.01712 136.0
169.018127 144.0
171.047836 164.0
172.055283 192.0
172.135025 168.0
172.827713 176.0
172.955933 2572.0
173.062012 188.0
173.810318 232.0
173.96138 136.0
174.951797 1288.0
174.98465 132.0
175.033295 456.0
175.954117 128.0
176.037842 2060.0
177.038574 328.0
178.022491 252.0
178.033463 584.0
178.93811 176.0
179.025116 6100.0
180.030884 1380.0
181.022491 1624.0
181.460251 144.0
182.028168 216.0
182.265472 200.0
182.978928 140.0
183.002457 216.0
183.037384 140.0
183.989227 244.0
184.042206 196.0
184.990845 592.0
185.230499 148.0
185.322601 156.0
185.813339 172.0
186.984711 376.0
188.951569 872.0
189.776352 144.0
189.958679 148.0
190.947296 392.0
190.990173 180.0
191.024048 356.0
192.031921 220.0
193.005539 868.0
193.041519 868.0
194.009918 376.0
194.049637 7336.0
194.102417 200.0
195.021027 2032.0
195.051407 784.0
195.980743 240.0
196.002426 444.0
196.046127 1340.0
197.017975 280.0
197.045837 132.0
198.969559 156.0
199.007202 352.0
199.980759 480.0
200.070847 192.0
200.95401 176.0
200.992371 280.0
201.079971 176.0
201.865341 176.0
202.942902 136.0
202.981354 176.0
203.033508 208.0
203.716141 180.0
203.974731 160.0
205.001022 128.0
206.033371 140.0
207.022537 936.0
208.026505 240.0
208.979553 188.0
209.012756 252.0
209.037308 496.0
210.011993 264.0
211.007568 1724.0
211.034592 524.0
211.979721 860.0
212.011002 124.0
212.994156 252.0
213.975555 756.0
214.006516 196.0
214.979935 520.0
215.001511 864.0
215.977783 184.0
216.010101 184.0
216.970154 284.0
216.995621 248.0
219.029755 152.0
220.026489 156.0
221.03569 276.0
222.04335 484.0
223.018417 152.0
223.045166 144.0
225.026566 152.0
225.960098 268.0
226.969009 168.0
227.00267 992.0
227.715347 180.0
227.975677 260.0
228.011383 112.0
228.946274 144.0
228.98259 2772.0
229.01796 2616.0
229.981369 284.0
230.023071 604.0
230.783112 244.0
230.979828 2468.0
231.013977 2396.0
231.463928 176.0
231.984467 188.0
232.017151 204.0
233.087326 248.0
234.974533 208.0
236.490234 160.0
237.010162 204.0
239.014252 384.0
239.048248 1200.0
240.01059 160.0
240.047882 168.0
240.995132 124.0
241.048416 564.0
241.944992 144.0
241.993958 184.0
242.341431 196.0
242.997025 1356.0
243.969666 828.0
244.00499 2612.0
244.996964 992.0
245.966904 408.0
246.00264 536.0
246.95459 548.0
247.01033 260.0
248.813232 144.0
250.037582 548.0
251.037796 160.0
252.041611 168.0
252.481018 188.0
253.027222 7496.0
254.029648 832.0
254.999771 1028.0
255.023254 2184.0
256.024048 428.0
256.947144 212.0
257.012939 17492.0
257.193451 152.0
257.349274 204.0
258.015839 2076.0
259.009827 8252.0
260.011658 464.0
260.993561 300.0
262.0159 152.0
267.006256 144.0
267.041931 408.0
268.049133 6668.0
268.978546 180.0
269.052246 592.0
270.043213 1600.0
270.80307 152.0
271.047302 196.0
275.06778 184.0
283.170044 144.0
284.155273 112.0
284.569427 148.0
287.006317 172.0
298.027313 144.0
302.168335 180.0
303.015533 376.0
303.137238 120.0
304.020172 156.0
304.192078 148.0
305.015472 244.0
305.15329 176.0
357.8349 148.0
1460.845581 148.0
1505.902832 160.0
1517.719971 144.0
1660.238892 144.0
1696.531616 252.0
1756.570557 200.0
1760.267944 212.0
1807.99292 152.0
1810.151611 176.0
1834.016357 168.0
1892.123291 152.0
1919.475586 176.0
1931.046875 164.0
1952.824829 160.0
1997.369507 224.0
