>compound CefditorenPivoxil
>formula C25H28N6O7S3 
>ionization [M+H]+
>parentmass 621.125
#inchi InChI=1S/C25H28N6O7S3/c1-12-15(41-10-27-12)7-6-13-8-39-21-17(29-19(32)16(30-36-5)14-9-40-24(26)28-14)20(33)31(21)18(13)22(34)37-11-38-23(35)25(2,3)4/h6-7,9-10,17,21H,8,11H2,1-5H3,(H2,26,28)(H,29,32)/b7-6-,30-16-/t17-,21-/m1/s1
#inchikey AFZFFLVORLEPPO
#Ion_Source LC-ESI
#Instrument qTof
#Compound_Source Isolated
#PI Sirenas
#Data_Collector Ed Esquenazi 
#Scan -1
#Precursor_MZ 621.125
#ExactMass 0.0
#Charge 1
#CAS_Number N/A
#Pubmed_ID N/A
#Smiles N/A
#INCHI_AUX N/A
#Library_Class 3
#SpectrumID CCMSLIB00000004869
#IonMode Positive
#UpdateWorkflowName UPDATE-SINGLE-ANNOTATED-BRONZE
#LibraryQualityString Bronze
#TaskID d19310cd93df49b68e9fcbec27720eb5
##Scan# 14
#SpectrumFile CefditorenPivoxil.mgf
#LibraryName fda_library.mgf
#MQScore -1
#Organism fda_library
#TIC_Query 0
#RT_Query -1
#MZErrorPPM -1
#SharedPeaks 0
#MassDiff 0
#LibMZ -1
#SpecMZ 621.125
#SpecCharge 0
#internalFilename spec-00000.mgf

>collision 10
126.011604 135.872406
156.020004 34.59111
166.026566 37.500599
185.050735 82.095657
186.046692 80.117653
194.966492 4.5125
197.05162 24.0
207.985931 109.993202
208.22287 16.09524
209.008392 37.449471
209.979324 30.74004
210.998688 55.588821
211.023209 119.096603
212.263229 8.5625
239.696381 27.032141
241.038788 551.429688
241.082352 10.72011
241.336121 8.55787
241.430008 41.035198
241.573914 10.60227
241.774078 7.145833
241.974274 18.61161
247.816132 14.51563
249.015701 210.001007
249.082443 3.0
250.019882 139.121094
258.048523 81.92569
263.118347 56.6017
263.495056 27.828409
267.020874 34.03125
289.7146 10.04735
304.017792 32.54343
310.129425 38.133701
311.050934 60.472599
330.044434 15.64881
339.077972 6.520833
342.071533 91.585068
363.046661 47.176472
369.080475 26.0875
369.737701 34.870468
373.038818 13.5125
379.066132 20.94643
381.082214 101.233803
381.210052 6.508929
408.328674 11.57031
414.00412 77.283234
416.992218 24.23472
419.476288 5.6875
430.022369 93.069229
432.297791 34.026791
445.02655 24.723221
448.014954 33.94331
449.020691 64.492554
461.049133 19.504999
489.036896 54.08226
505.060577 47.166672
507.052704 176.7034
507.31073 9.017045
507.467468 7.015625
507.530121 8.533089
507.89093 22.19565
508.504517 8.121324
561.13501 13.5504
588.693176 18.73835
589.386719 21.91848
591.107788 33.26889
609.130188 52.34766
609.153748 41.875
617.23999 25.51372
619.050354 9.240385
619.821899 13.02083
621.118164 247.413605
621.179077 23.0375
622.098511 7.102273
622.351929 18.444639
643.73291 9.075
699.08313 55.0625
719.076416 30.77574
737.082031 36.12141
746.068848 16.944851
787.122009 10.3288
795.61853 31.808649
802.755737 37.981892
1094.10376 18.816891
1117.144043 26.683821
1127.145142 15.41667
1367.189453 17.722219
