>compound MLS000563030-01![5-hydroxy-6-[2-(3-hydroxy-4-methoxyphenyl)ethoxy]-2-(hydroxymethyl)-4-[(2R,3R,4R,5R,6S)-3,4,5-trihydroxy-6-methyloxan-2-yl]oxyoxan-3-yl] (E)-3-(4-hydroxy-3-methoxyphenyl)prop-2-enoate
>formula C31H40O15
>ionization [M+H]+
>parentmass 653.245
#inchi InChI=1S/C31H40O15/c1-15-24(36)25(37)26(38)31(43-15)46-29-27(39)30(42-11-10-17-5-8-20(40-2)19(34)12-17)44-22(14-32)28(29)45-23(35)9-6-16-4-7-18(33)21(13-16)41-3/h4-9,12-13,15,22,24-34,36-39H,10-11,14H2,1-3H3/b9-6+/t15-,22?,24-,25+,26+,27?,28?,29?,30?,31+/m0/s1
#inchikey WLWAYPFRKDSFCL
#Ion_Source LC-ESI
#Instrument qTof
#Compound_Source NIH Natural Product Library
#PI Dorrestein
#Data_Collector VVP/LMS
#Scan -1
#Precursor_MZ 653.245
#ExactMass 652.237
#Charge 1
#CAS_Number N/A
#Pubmed_ID N/A
#Smiles COc1ccc(CCOC2OC(CO)C(OC(=O)/C=C/c3ccc(O)c(OC)c3)C(O[C@H]4O[C@@H](C)[C@H](O)[C@@H](O)[C@H]4O)C2O)cc1O
#INCHI_AUX N/A
#Library_Class 1
#SpectrumID CCMSLIB00000079885
#IonMode Positive
#UpdateWorkflowName UPDATE-SINGLE-ANNOTATED-GOLD
#LibraryQualityString Gold
#TaskID b1d8e8f6646f4e71acdff9ca3d919d08
##Scan# 1672
#SpectrumFile p1-D12_GD12_01_17920.mzXML
#LibraryName NIH_Natural_Products_Library.mgf
#MQScore -1
#Organism NIH_Natural_Products_Library
#TIC_Query 0
#RT_Query -1
#MZErrorPPM -1
#SharedPeaks 0
#MassDiff 0
#LibMZ -1
#SpecMZ 653.245
#SpecCharge 0
#internalFilename spec-00000.mgf

>collision 10
96.232292 188.0
96.744507 144.0
97.026604 536.0
99.042511 64.0
99.333885 100.0
99.528374 172.0
100.633415 108.0
100.817184 136.0
101.023392 148.0
101.255302 52.0
104.141464 172.0
104.285721 116.0
104.546036 48.0
105.012573 156.0
105.032967 152.0
106.309616 124.0
106.695763 148.0
107.885262 152.0
108.379898 80.0
109.555809 180.0
110.497337 184.0
110.652214 160.0
110.73597 260.0
110.775764 160.0
111.369377 108.0
115.039032 144.0
115.676048 200.0
116.301941 244.0
117.032692 420.0
117.065155 172.0
117.390541 228.0
118.0401 148.0
118.592552 88.0
119.358879 248.0
121.056549 76.0
122.069702 300.0
122.248528 148.0
124.08181 48.0
125.645256 184.0
125.841652 128.0
125.922035 48.0
126.214783 160.0
126.754227 124.0
127.041199 220.0
127.870316 168.0
129.053482 308.0
130.158051 84.0
130.953979 56.0
131.092957 124.0
131.922745 156.0
133.053131 156.0
133.885483 60.0
134.037521 216.0
135.039413 80.0
135.078735 124.0
135.687775 160.0
136.500412 108.0
136.912308 196.0
137.089355 68.0
137.245529 76.0
137.460114 232.0
137.607162 120.0
138.139984 92.0
138.666809 168.0
139.843475 188.0
141.152771 144.0
141.169327 172.0
142.138153 128.0
142.437286 132.0
142.854218 212.0
143.038879 280.0
143.636963 132.0
144.676437 144.0
144.772217 108.0
144.89917 220.0
144.925522 48.0
144.979736 232.0
145.02742 4000.0
145.078903 64.0
145.150833 48.0
145.179611 68.0
145.337921 36.0
145.43631 52.0
145.565948 160.0
145.69754 56.0
145.993683 184.0
146.030853 336.0
146.202988 60.0
146.289627 76.0
147.066269 180.0
147.188904 96.0
148.027969 40.0
148.245987 196.0
148.532059 240.0
148.762589 84.0
149.058487 172.0
150.064133 124.0
151.075562 156.0
151.405624 64.0
151.743759 64.0
152.470337 52.0
153.294724 120.0
153.472198 104.0
153.528915 128.0
153.73613 68.0
155.212891 172.0
155.86322 204.0
156.649384 92.0
157.967407 172.0
158.150055 160.0
158.480621 180.0
159.376343 104.0
160.758743 132.0
161.397827 196.0
161.99762 116.0
163.070923 180.0
163.294662 176.0
163.714569 224.0
164.908539 172.0
165.021011 172.0
165.089005 288.0
166.214584 188.0
166.615112 88.0
169.050858 240.0
171.078735 84.0
171.258408 168.0
171.360001 188.0
173.04718 188.0
173.786285 196.0
174.545364 108.0
174.661087 136.0
174.945267 164.0
175.050583 124.0
175.077148 180.0
176.95961 212.0
176.986084 52.0
177.053787 16516.0
177.144989 36.0
177.179413 92.0
177.213867 56.0
177.282761 52.0
177.364914 40.0
177.753754 116.0
177.799637 180.0
177.906235 56.0
177.949646 124.0
177.988358 152.0
178.006943 52.0
178.057159 1868.0
178.153015 40.0
178.192871 88.0
178.267258 60.0
178.293839 64.0
178.344666 96.0
178.370285 64.0
178.700668 36.0
178.91806 88.0
179.066681 460.0
179.169235 60.0
179.187881 76.0
179.219849 160.0
179.417084 124.0
179.459412 100.0
179.545059 48.0
179.745132 100.0
180.076157 172.0
180.204376 72.0
181.012146 48.0
181.063278 204.0
181.084229 240.0
181.358337 88.0
185.771866 76.0
187.686508 120.0
189.056198 192.0
189.097809 184.0
190.645569 72.0
190.785751 72.0
191.069 232.0
191.947617 48.0
194.051743 120.0
195.065979 860.0
196.700119 156.0
199.07872 424.0
200.089325 124.0
202.09317 152.0
203.064789 156.0
205.052094 164.0
205.08194 180.0
205.77092 192.0
206.087952 136.0
208.072723 176.0
211.100967 144.0
213.699905 156.0
217.050079 216.0
217.09407 192.0
219.066208 128.0
219.101562 180.0
223.459534 172.0
227.072464 112.0
231.101501 176.0
232.064636 132.0
233.081436 304.0
235.096115 156.0
243.089188 136.0
245.085449 152.0
249.665054 156.0
255.087463 208.0
259.092621 108.0
261.098511 100.0
262.122162 40.0
265.030243 204.0
265.834381 256.0
269.086029 160.0
273.399658 148.0
277.104462 112.0
278.115875 136.0
279.08374 144.0
279.122467 104.0
284.08548 40.0
295.109467 220.0
298.724121 52.0
304.083221 132.0
304.986237 240.0
305.095886 104.0
306.096039 136.0
307.124115 264.0
318.077972 148.0
318.456116 20.0
321.101501 204.0
322.984528 72.0
323.114288 168.0
324.121643 164.0
325.116272 100.0
335.282166 204.0
336.128174 112.0
339.103394 2328.0
339.449554 52.0
339.544891 140.0
339.585236 60.0
339.875031 56.0
340.110168 644.0
341.506104 36.0
341.70108 52.0
342.124298 72.0
344.443756 36.0
355.430298 132.0
362.004272 140.0
366.059814 112.0
370.89267 160.0
387.161865 164.0
393.137238 152.0
394.136292 96.0
401.081268 112.0
409.318146 80.0
438.222992 224.0
449.324982 64.0
459.511444 72.0
464.349365 48.0
473.771942 36.0
491.17923 148.0
546.247864 144.0
564.1474 112.0
569.181274 20.0
590.688538 68.0
636.661072 44.0
642.681335 112.0
645.884216 64.0
648.85675 176.0
649.850769 236.0
650.368408 124.0
656.35614 136.0
660.380249 68.0
769.141663 132.0
959.649597 160.0
992.141602 136.0
995.171814 96.0
1022.906372 236.0
1037.875 164.0
1093.939331 180.0
1118.258667 48.0
1146.06311 200.0
1156.124268 104.0
1165.169434 116.0
1179.561768 156.0
1181.661255 172.0
1185.96167 176.0
1191.018433 180.0
1192.00769 144.0
1193.746826 164.0
1201.033203 48.0
1246.397339 44.0
1273.738159 160.0
1281.022095 180.0
1300.291626 116.0
1329.491089 220.0
1329.984619 220.0
1331.828857 56.0
1357.24707 176.0
1390.836182 248.0
1412.68396 140.0
1416.261963 152.0
1427.180786 168.0
1439.062622 228.0
1467.872925 112.0
1478.521729 176.0
1483.799316 180.0
1494.5979 188.0
1498.963867 60.0
1499.564941 148.0
1502.965698 232.0
