>compound MLS002472920-01!9-[(2E)-3,7-dimethylocta-2,6-dienoxy]furo[3,2-g]chromen-7-one
>formula C21H22O4
>ionization [M+H]+
>parentmass 339.16
#inchi InChI=1S/C21H22O4/c1-14(2)5-4-6-15(3)9-11-24-21-19-17(10-12-23-19)13-16-7-8-18(22)25-20(16)21/h5,7-10,12-13H,4,6,11H2,1-3H3/b15-9+
#inchikey SOVNCTNQAWWYAQ
#Ion_Source LC-ESI
#Instrument qTof
#Compound_Source NIH Natural Product Library
#PI Dorrestein
#Data_Collector VVP/LMS
#Scan -1
#Precursor_MZ 339.16
#ExactMass 338.152
#Charge 1
#CAS_Number N/A
#Pubmed_ID N/A
#Smiles CC(=CCC/C(=C/COc1c2occc2cc3ccc(=O)oc13)/C)C
#INCHI_AUX N/A
#Library_Class 1
#SpectrumID CCMSLIB00000079772
#IonMode Positive
#UpdateWorkflowName UPDATE-SINGLE-ANNOTATED-GOLD
#LibraryQualityString Gold
#TaskID b1d8e8f6646f4e71acdff9ca3d919d08
##Scan# 2824
#SpectrumFile p1-H10_GH10_01_17966.mzXML
#LibraryName NIH_Natural_Products_Library.mgf
#MQScore -1
#Organism NIH_Natural_Products_Library
#TIC_Query 0
#RT_Query -1
#MZErrorPPM -1
#SharedPeaks 0
#MassDiff 0
#LibMZ -1
#SpecMZ 339.16
#SpecCharge 0
#internalFilename spec-00000.mgf

>collision 10
95.084785 1596.0
95.492096 128.0
95.564072 88.0
95.838608 40.0
96.015999 152.0
96.08712 432.0
96.101837 144.0
96.133057 52.0
96.758537 44.0
97.101456 172.0
97.262344 120.0
97.960419 180.0
99.727463 112.0
99.816925 220.0
100.546043 200.0
100.677803 180.0
101.267799 228.0
101.945915 136.0
102.581932 40.0
102.953186 188.0
103.054604 156.0
103.058571 188.0
103.617279 64.0
104.054726 208.0
104.428635 184.0
105.028427 200.0
105.094788 48.0
105.180496 132.0
105.930962 72.0
107.031807 120.0
107.274918 56.0
107.675209 60.0
108.030739 92.0
108.090736 180.0
108.339195 176.0
109.076759 188.0
109.099869 296.0
109.969452 44.0
110.109337 208.0
110.535805 188.0
111.08474 180.0
111.359711 144.0
111.410126 204.0
111.763336 248.0
112.836914 48.0
112.88131 116.0
112.989189 176.0
113.709648 180.0
113.89225 176.0
113.945358 168.0
114.406853 204.0
114.877823 160.0
116.365211 172.0
117.031738 56.0
117.721764 192.0
118.039429 156.0
118.193008 108.0
118.574142 168.0
119.049446 184.0
119.086182 228.0
120.220467 228.0
122.086975 196.0
122.108963 128.0
122.489754 196.0
122.703514 148.0
124.233925 172.0
124.593567 112.0
126.710815 180.0
127.060562 196.0
128.065399 196.0
128.441818 36.0
128.466629 44.0
128.791687 152.0
129.031235 1080.0
129.234772 64.0
130.035172 204.0
130.080124 156.0
130.541336 92.0
130.647827 132.0
131.047928 1128.0
131.292847 140.0
131.719666 60.0
131.845337 104.0
132.035995 300.0
132.554749 144.0
133.02951 168.0
133.581039 84.0
133.656952 216.0
134.664398 144.0
136.276718 136.0
136.946701 136.0
137.130981 1232.0
137.207687 76.0
138.139511 200.0
138.453125 96.0
139.112 144.0
139.616638 196.0
140.038452 128.0
140.71524 200.0
141.061081 112.0
141.924286 124.0
142.936188 164.0
143.090897 240.0
143.214722 160.0
143.670029 148.0
143.765472 208.0
144.054367 144.0
144.341171 128.0
145.026123 300.0
145.065598 212.0
145.488846 84.0
145.673752 188.0
146.491653 184.0
146.544434 216.0
147.043304 7424.0
147.14328 64.0
147.328766 64.0
147.415741 92.0
147.790543 80.0
147.87767 64.0
147.930923 96.0
147.962387 60.0
148.04184 632.0
148.371826 96.0
148.898392 36.0
149.04657 472.0
149.214279 60.0
149.253189 136.0
149.959167 88.0
150.376236 80.0
151.376144 132.0
152.06012 172.0
152.317932 196.0
152.379349 188.0
152.703842 116.0
153.585617 76.0
154.38089 168.0
155.050278 196.0
155.766373 160.0
156.089478 152.0
157.027527 724.0
157.062988 156.0
157.864975 108.0
158.032562 192.0
158.067596 96.0
158.666214 176.0
159.042328 752.0
159.270996 76.0
159.499664 216.0
160.052032 200.0
160.678223 88.0
161.016464 216.0
163.900833 204.0
164.983017 160.0
166.071304 144.0
167.796814 172.0
167.915436 216.0
170.065506 112.0
171.219894 188.0
171.702042 104.0
172.04126 124.0
173.01857 792.0
173.37262 104.0
173.577087 68.0
174.028992 448.0
174.062546 172.0
174.838043 124.0
175.038452 2984.0
175.096039 52.0
175.125015 28.0
175.77356 228.0
175.976791 200.0
176.021683 168.0
176.044312 316.0
176.306992 76.0
176.547562 56.0
176.891525 36.0
177.015961 108.0
177.047745 128.0
178.023666 184.0
178.911728 140.0
180.122421 140.0
181.363998 200.0
182.470001 200.0
183.024261 144.0
183.043121 44.0
183.412216 116.0
184.043503 116.0
184.781372 128.0
185.020584 660.0
185.165756 268.0
185.992722 124.0
186.028015 308.0
186.299576 160.0
187.033401 244.0
187.202591 36.0
187.540421 60.0
187.690369 84.0
187.911301 56.0
190.674286 128.0
193.795319 172.0
197.064758 160.0
198.466904 136.0
198.691284 152.0
199.038254 360.0
199.767242 128.0
200.961792 92.0
201.015121 408.0
201.118469 208.0
202.026062 644.0
202.250458 32.0
202.403336 60.0
202.488281 68.0
202.542099 216.0
202.726257 96.0
202.760269 148.0
202.862305 120.0
203.032944 13452.0
203.103333 52.0
203.128876 116.0
203.185608 104.0
203.20546 76.0
203.381409 56.0
203.585831 52.0
203.628433 84.0
203.796036 36.0
203.835815 132.0
204.03717 1788.0
204.813705 72.0
204.899963 48.0
205.041611 344.0
205.090897 60.0
205.113693 100.0
205.239136 136.0
205.260818 132.0
205.330383 40.0
205.390289 96.0
205.592865 76.0
206.489944 116.0
208.169327 32.0
209.800735 88.0
211.126068 52.0
211.502197 140.0
212.963562 108.0
213.050491 160.0
214.995758 188.0
215.036163 452.0
215.075027 200.0
215.145142 112.0
215.337341 72.0
215.556442 84.0
221.046646 160.0
222.065765 156.0
224.036545 144.0
227.070526 128.0
228.079376 132.0
228.68396 56.0
229.053543 168.0
229.102509 72.0
230.892456 84.0
240.982071 284.0
241.082565 140.0
243.057632 372.0
244.066086 172.0
246.964951 176.0
249.118423 144.0
254.052673 132.0
255.059311 100.0
255.106995 172.0
257.084961 140.0
262.954895 168.0
264.253937 176.0
266.981506 140.0
284.096985 136.0
288.944946 188.0
289.012604 20.0
315.986206 92.0
321.212036 144.0
341.274628 160.0
487.850739 60.0
545.966614 160.0
624.347534 124.0
681.185974 116.0
710.204651 160.0
724.217712 120.0
780.137207 104.0
817.315979 112.0
821.611938 68.0
839.450317 160.0
845.707214 60.0
886.377075 232.0
950.675598 52.0
955.665222 104.0
981.482361 96.0
1001.694519 176.0
1011.570862 192.0
1029.066772 260.0
1052.587036 244.0
1058.665649 124.0
1079.607788 52.0
1102.340454 204.0
1111.319336 144.0
1120.128174 236.0
1147.983521 156.0
1188.197754 136.0
1198.208008 128.0
1204.437256 192.0
1231.841187 160.0
1242.362915 188.0
1260.655518 156.0
1268.660767 168.0
1288.409424 124.0
1290.246216 148.0
1298.574097 184.0
1300.568848 164.0
1305.116333 40.0
1308.699585 148.0
1317.512939 204.0
1320.310303 184.0
1322.372192 188.0
1332.3573 132.0
1339.326294 176.0
1342.044556 140.0
1349.15564 68.0
1352.271851 60.0
1352.410889 232.0
1360.951538 168.0
1362.875854 144.0
1389.893799 76.0
1405.736206 144.0
1417.034424 164.0
1421.008057 204.0
1426.325073 168.0
1440.038452 148.0
1444.240845 220.0
1464.3927 116.0
1472.943237 152.0
1479.78772 196.0
1486.58667 192.0
1491.502075 156.0
1493.255127 128.0
1495.116943 224.0
1495.263184 212.0
1500.624634 188.0
