>compound (E)-1-N'-[2-[[2-[(dimethylamino)methyl]-1,3-thiazol-4-yl]methylsulfanyl]ethyl]-1-N-methyl-2-nitroethene-1,1-diamine
>formula C12H21N5O2S2
>ionization [M+H]+
>parentmass 332.120728
#inchi InChI=1S/C12H21N5O2S2/c1-13-11(6-17(18)19)14-4-5-20-8-10-9-21-12(15-10)7-16(2)3/h6,9,13-14H,4-5,7-8H2,1-3H3/b11-6+
#inchikey SGXXNSQHWDMGGP
#Ion_Source LC-ESI
#Instrument qTof
#Compound_Source Commercial
#PI Dorrestein
#Data_Collector Garg_Neha
#Scan -1
#Precursor_MZ 332.121
#ExactMass 331.114
#Charge 1
#CAS_Number N/A
#Pubmed_ID N/A
#Smiles CN/C(=C\[N+](=O)[O-])/NCCSCc1csc(CN(C)C)n1
#INCHI_AUX N/A
#Library_Class 1
#SpectrumID CCMSLIB00000079013
#IonMode Positive
#UpdateWorkflowName UPDATE-SINGLE-ANNOTATED-GOLD
#LibraryQualityString Gold
#TaskID 278b19f5865741e282cec7349aa7e7a1
##Scan# 523
#SpectrumFile NCP003352_E2_F11_BC6_01_15720.mzXML
#LibraryName NIHcollectionI_05062014.mgf
#MQScore -1
#Organism NIHcollectionI_05062014
#TIC_Query 0
#RT_Query -1
#MZErrorPPM -1
#SharedPeaks 0
#MassDiff 0
#LibMZ -1
#SpecMZ 332.121
#SpecCharge 0
#internalFilename spec-00000.mgf

>collision 10
55.378777 196.0
60.996063 192.0
80.183418 148.0
100.097969 152.0
110.864883 160.0
112.018364 156.0
112.13636 180.0
113.008492 144.0
113.026886 316.0
131.064575 1196.0
132.065063 200.0
139.035095 272.0
140.033508 140.0
141.044785 296.0
142.415253 212.0
143.987183 160.0
144.979996 216.0
147.061417 176.0
154.054428 636.0
154.746567 144.0
155.064728 2348.0
155.410797 148.0
156.068588 208.0
157.057678 160.0
159.192505 156.0
164.703705 160.0
171.017731 160.0
171.716766 164.0
183.004227 144.0
185.918182 160.0
187.034943 116.0
192.082626 244.0
198.998428 156.0
199.035294 544.0
200.041428 188.0
202.444153 192.0
212.967453 148.0
215.066757 824.0
216.045654 216.0
216.071228 348.0
227.062241 160.0
232.094269 1384.0
233.095474 136.0
233.939438 180.0
235.094589 180.0
243.085953 1412.0
244.091476 668.0
245.076157 292.0
249.901505 144.0
249.951843 212.0
258.07251 804.0
258.171204 148.0
259.078674 176.0
260.074646 196.0
271.105774 1160.0
271.872345 188.0
272.088989 140.0
283.047455 164.0
283.7276 152.0
284.109894 180.0
286.127777 1572.0
287.126465 384.0
288.123047 116.0
289.1203 180.0
290.892914 200.0
294.297363 156.0
298.876617 192.0
301.064423 164.0
303.161926 192.0
308.885773 140.0
314.109619 320.0
316.111938 172.0
328.192749 136.0
328.640533 140.0
331.660156 144.0
331.739624 148.0
331.919769 224.0
332.000366 120.0
332.120728 17808.0
332.557648 100.0
333.122192 1552.0
333.195679 108.0
334.119843 1280.0
335.117279 140.0
335.196289 176.0
1484.939697 152.0
1721.188232 160.0
1863.511841 176.0
1875.127808 220.0
1950.849487 168.0
1986.171021 164.0
