>compound SalbutamolSulfate
>formula C13H21NO3 
>ionization [M+H]+
>parentmass 240.16
#inchi InChI=1S/C13H21NO3/c1-13(2,3)14-7-12(17)9-4-5-11(16)10(6-9)8-15/h4-6,12,14-17H,7-8H2,1-3H3
#inchikey NDAUXUAQIAJITI
#Ion_Source LC-ESI
#Instrument qTof
#Compound_Source Isolated
#PI Sirenas
#Data_Collector Ed Esquenazi 
#Scan -1
#Precursor_MZ 240.16
#ExactMass 0.0
#Charge 1
#CAS_Number N/A
#Pubmed_ID N/A
#Smiles N/A
#INCHI_AUX N/A
#Library_Class 3
#SpectrumID CCMSLIB00000004729
#IonMode Positive
#UpdateWorkflowName UPDATE-SINGLE-ANNOTATED-BRONZE
#LibraryQualityString Bronze
#TaskID d19310cd93df49b68e9fcbec27720eb5
##Scan# 2
#SpectrumFile SalbutamolSulfate.mgf
#LibraryName fda_library.mgf
#MQScore -1
#Organism fda_library
#TIC_Query 0
#RT_Query -1
#MZErrorPPM -1
#SharedPeaks 0
#MassDiff 0
#LibMZ -1
#SpecMZ 240.16
#SpecCharge 0
#internalFilename spec-00000.mgf

>collision 10
100.641258 19.24103
101.035858 19.33386
102.043427 46.376041
103.052376 1841.766968
103.127647 17.377781
103.785332 16.70476
104.045364 65.680687
104.167084 23.75
105.033195 28.16568
105.055344 203.378693
105.067108 261.887695
105.416183 30.15341
105.70417 14.04688
106.063148 1371.227051
106.331139 15.39394
107.047684 225.513306
114.693062 50.33659
117.055298 261.635101
117.445114 24.95927
117.497612 19.480021
117.509315 15.17926
117.750084 20.71558
118.038254 56.292191
118.062477 2133.862061
118.094421 16.79594
118.375946 18.18519
118.470718 21.280411
119.047333 1016.867004
119.580727 13.66964
119.603661 16.745159
119.740967 17.476851
119.801308 18.427219
120.05423 52.650421
120.07859 7065.51416
120.116539 29.807171
120.125206 30.68783
120.136497 16.05797
120.144257 18.000891
120.152588 17.9
120.229134 19.129379
120.285378 16.000641
120.300896 27.39506
120.330322 22.26759
120.354073 13.8125
120.370209 17.46154
120.429039 16.156919
120.476418 17.841181
120.527428 35.082901
120.610901 25.398939
120.656204 19.37719
120.667221 13.15705
121.062767 16392.660156
121.108551 87.035767
121.126793 34.78669
121.145988 20.73374
121.157417 43.2551
121.176292 13.17647
121.220314 18.201191
121.231033 17.97917
121.24456 28.56517
121.288063 39.416672
121.310364 30.24802
121.337845 19.75
121.3647 49.76907
121.375183 18.001671
121.408875 55.164398
121.424088 16.73848
121.463364 18.335649
121.471069 14.88466
121.490242 15.66945
121.507019 16.870001
121.655182 20.335581
121.839432 18.25931
121.951828 22.17008
122.00869 30.51524
122.06958 27.42857
122.206131 18.777781
128.285385 12.70519
129.363724 21.17342
129.532532 40.36628
129.55368 26.376789
129.878235 19.66905
130.063034 10068.419922
130.113083 74.491707
130.14949 46.713711
130.159561 25.739731
130.206299 51.446289
130.21962 20.047621
130.256668 19.705879
130.289215 31.703791
130.297943 26.20056
130.311417 17.081671
130.330597 14.35299
130.362808 34.05088
130.432266 27.88172
130.577118 18.35294
130.649063 24.728451
130.679413 23.29348
130.688232 13.80303
131.047577 1245.322998
131.421326 21.694441
131.441071 17.67901
131.456665 44.10656
131.484924 14.3477
131.496201 23.407471
132.28392 16.688101
132.450745 14.70833
132.496841 21.30225
132.895279 23.188009
133.049957 9196.463867
133.099625 41.837299
133.157959 21.0117
133.200348 27.749359
133.315689 26.0
133.35788 15.08889
133.376221 19.280001
133.429138 21.055229
133.780884 27.43293
134.047974 40.677158
134.159698 14.84593
134.959671 21.32658
135.065079 469.786407
135.250061 23.20532
135.298004 19.920731
136.073303 2920.38208
136.234161 14.17973
136.245667 18.44079
136.29631 17.606819
136.449768 20.33333
137.027542 22.471741
137.056824 60.311321
146.056091 659.654175
146.275665 13.28736
147.093597 24.74383
147.123184 34.395061
147.13504 39.789291
147.144104 22.86047
147.180542 148.853699
147.195145 130.599396
147.210861 176.593506
147.237762 87.246933
147.251816 152.815903
147.266449 148.462296
147.276581 97.440483
147.295944 119.841499
147.307785 223.200897
147.323151 285.583588
147.343277 169.740707
147.361511 186.225296
147.38591 147.144302
147.406097 172.886398
147.421616 101.682602
147.429291 397.949188
147.456375 301.760315
147.471344 157.507996
147.481476 47.333328
147.491821 54.789631
147.501251 42.868591
147.513763 163.246094
147.522675 44.05357
147.550781 143.225601
147.579681 50.055561
147.591385 48.73373
147.603973 173.380997
147.625534 46.777431
147.642044 33.129269
147.65094 29.07407
147.726166 123.185799
147.787201 121.344498
147.937759 74.336563
148.02388 52.190281
148.034897 52.58041
148.073761 437003.90625
148.474258 129.1353
148.489532 91.4701
148.500229 78.770119
148.528671 251.674194
148.5439 90.417953
148.55986 64.549316
148.570221 108.6996
148.597397 69.257278
148.611343 262.421112
148.636322 135.529007
148.65918 233.789993
148.679092 189.226898
148.698212 83.874847
148.708786 153.893707
148.733765 100.918602
148.745712 20.135071
148.76976 145.050995
148.7948 68.553658
148.810684 75.664871
148.828217 70.23645
148.842133 72.826759
148.851929 86.327812
148.867828 55.30677
148.895279 64.698227
148.913361 39.916672
148.951065 58.08485
148.97908 83.92144
148.994614 77.416862
149.015244 119.9674
149.036102 44.301529
149.055878 959.875488
149.07637 3715.787109
149.130432 99.127602
149.139725 16.066669
149.253418 34.201389
149.293961 144.676193
149.315994 126.182404
149.371017 75.822884
149.394028 57.770031
149.408722 19.619049
149.435318 20.695511
149.450958 29.341669
149.482773 45.53212
149.63826 59.418751
149.948624 26.24107
150.057083 15.69808
150.09816 29.63516
150.113052 17.476851
150.133286 37.540909
150.155106 16.047621
150.182892 37.04002
150.423874 16.03125
150.666824 16.847219
150.68689 27.051741
150.85585 13.48159
150.881027 22.510639
151.308929 16.561991
151.351105 14.77381
151.505371 17.202379
151.830505 23.412251
152.070999 17.862009
152.195419 16.33654
152.397522 17.343901
153.050812 33.03096
153.23175 20.16667
153.308975 28.71839
165.184769 39.345711
165.200165 24.41618
165.254089 19.72727
165.296051 15.30123
165.315796 56.000271
165.341675 26.27899
165.353027 22.54825
165.401321 17.749319
165.449844 30.007959
165.459442 39.00238
165.611038 35.744141
165.862045 18.51111
166.047867 123.393799
166.083725 32141.650391
166.196396 24.62879
166.211884 48.74139
166.240356 50.856178
166.250015 16.89316
166.274841 21.91667
166.289459 85.997162
166.305878 22.866671
166.324829 77.927902
166.352997 46.379902
166.366257 68.510513
166.395203 39.668129
166.411621 38.334
166.42569 39.111889
166.439026 23.80064
166.459427 55.505081
166.472549 14.39167
166.503708 34.666672
166.535904 56.716171
166.562073 13.04762
166.586502 49.82233
166.601273 16.12281
166.611008 28.43251
166.629135 16.052349
166.683365 27.0
166.735992 39.275768
166.81369 39.450191
167.087006 230.163803
167.187607 14.59269
167.222733 18.671539
167.263184 15.00872
167.776596 13.00556
168.600586 31.594179
169.17305 23.48243
204.13446 416.579102
221.119171 42.099258
222.115433 35.838589
222.144897 6024.423828
222.209518 21.23184
222.332626 29.779409
222.434937 16.441389
222.50737 25.51173
223.801605 16.83
240.154358 232.938202
246.877213 26.589741
369.543671 22.006941
418.658875 16.11458
764.108704 12.67857
