>compound Aztreonam
>formula C13H17N5O8S2 
>ionization [M+H]+
>parentmass 436.06
#inchi InChI=1S/C13H17N5O8S2/c1-5-7(10(20)18(5)28(23,24)25)16-9(19)8(6-4-27-12(14)15-6)17-26-13(2,3)11(21)22/h4-5,7H,1-3H3,(H2,14,15)(H,16,19)(H,21,22)(H,23,24,25)/b17-8-/t5-,7-/m0/s1
#inchikey WZPBZJONDBGPKJ
#Ion_Source LC-ESI
#Instrument qTof
#Compound_Source Isolated
#PI Sirenas
#Data_Collector Ed Esquenazi 
#Scan -1
#Precursor_MZ 436.06
#ExactMass 0.0
#Charge 1
#CAS_Number N/A
#Pubmed_ID N/A
#Smiles N/A
#INCHI_AUX N/A
#Library_Class 3
#SpectrumID CCMSLIB00000005430
#IonMode Positive
#UpdateWorkflowName UPDATE-SINGLE-ANNOTATED-BRONZE
#LibraryQualityString Bronze
#TaskID d19310cd93df49b68e9fcbec27720eb5
##Scan# 3
#SpectrumFile Aztreonam.mgf
#LibraryName fda_library.mgf
#MQScore -1
#Organism fda_library
#TIC_Query 0
#RT_Query -1
#MZErrorPPM -1
#SharedPeaks 0
#MassDiff 0
#LibMZ -1
#SpecMZ 436.06
#SpecCharge 0
#internalFilename spec-00000.mgf

>collision 10
100.007996 404.548615
100.037735 2.208333
100.049911 11.64031
100.17704 18.25
100.199615 12.72115
100.242592 6.906746
100.698189 11.00758
100.991653 10.34405
102.054985 41.407551
106.042267 44.333328
107.022713 31.49128
107.045387 106.9776
109.047722 19.36134
109.346672 4.013889
109.433533 4.259615
110.004906 57.01873
110.071373 155.188095
110.107086 1.694445
110.455238 3.266667
111.001595 410.781586
111.032272 5.5
111.050896 2.333333
111.179245 9.333333
111.450806 1.671296
112.418861 5.338889
112.459442 16.0119
113.016579 584.445984
113.195145 5.633333
113.561188 11.53333
113.665291 1.666667
113.792259 6.446428
114.236092 6.296568
116.024353 38.563969
117.010094 19.111111
122.036484 41.4902
122.058632 16.85417
122.171021 4.094697
122.195038 11.45581
122.225235 2.722222
122.999802 112.392303
123.040062 88.26059
123.830215 9.671296
123.985474 22.497971
124.009323 313.392395
124.05117 426.039398
124.13237 6.75
124.171677 6.339285
124.272163 5.371913
124.354576 10.08333
124.477791 9.349999
124.536018 9.423913
124.741867 3.010417
124.749634 2.0
124.887932 17.49679
125.004379 964.939026
125.035217 4.017857
125.052917 1.720238
125.068459 4.333333
125.087914 30.55389
125.100029 8.375
125.130714 11.66733
125.165909 9.063725
125.1968 5.774123
125.251381 15.68094
125.271301 23.405001
125.302467 3.342592
125.321602 11.82315
125.341133 6.98077
125.35318 4.927083
125.403275 6.339285
125.454124 5.939394
125.460083 57.462151
125.473633 27.924509
125.481537 14.69444
125.492622 4.746795
125.590797 25.173611
125.656761 9.739865
126.012016 12002.349609
126.059204 95.614594
126.07412 65.271599
126.108543 22.89744
126.120178 62.874531
126.140556 14.5386
126.162476 39.897659
126.179413 12.6886
126.195053 11.93895
126.208481 41.960571
126.22847 11.675
126.246178 10.20417
126.265114 15.33422
126.294342 32.766521
126.312752 4.00463
126.320641 20.80303
126.335724 61.95652
126.353935 50.82608
126.363213 2.416667
126.393517 53.900761
126.427505 42.188068
126.437775 7.668011
126.461769 17.60215
126.470612 15.48704
126.504288 20.33333
126.543419 8.674319
126.562439 24.066669
126.633575 38.248779
126.6455 8.345239
126.681328 22.712641
126.739166 10.92287
126.751289 7.75
126.7705 10.74383
126.802032 16.499069
126.916512 12.14602
126.994141 24.30637
127.01989 9317.569336
127.068214 84.769417
127.084999 34.2784
127.103691 8.03592
127.150475 44.378849
127.177917 18.144051
127.189957 5.692308
127.209579 8.333333
127.244896 14.86629
127.256668 8.372808
127.264259 19.0819
127.289467 10.19805
127.307205 45.49213
127.382912 16.176519
127.409683 20.160549
127.418144 31.827379
127.447395 15.14419
127.480476 9.716666
127.527596 3.047619
127.547218 37.764481
127.583595 34.179939
127.648872 32.993111
127.702095 6.633772
127.760475 32.327591
127.787537 11.3344
127.820168 14.41786
127.97979 10.51087
128.005615 51.022018
128.056091 35.45607
128.161072 10.96296
128.389328 7.002778
128.669449 10.02815
129.668854 10.51096
129.746338 16.9312
129.94722 4.333333
130.567856 35.476589
130.948502 5.720238
133.04892 65.542953
134.05574 84.028023
134.810257 13.89387
135.069519 51.14418
135.996384 161.150406
137.016129 185.056702
137.083511 106.652199
137.272491 5.629902
137.94249 11.40517
138.010834 796.944397
138.061005 17.27886
138.159836 23.63456
138.224564 10.92287
138.269577 12.47619
138.335022 7.015
138.413422 6.440476
138.540253 14.22835
138.996201 568.233826
139.020905 378.318695
139.091812 8.703947
139.331818 14.22222
139.381744 17.40151
139.431168 4.444444
140.026535 150.485901
140.044769 30.803341
140.173477 14.76923
140.232971 20.18841
140.273056 5.69697
141.013672 107.970299
141.152039 4.0
141.197311 3.490385
141.27594 6.336538
141.298462 34.31649
141.362915 5.088768
141.396011 4.35307
141.660858 6.415
141.756531 7.006945
142.006714 2649.294922
142.058731 14.42165
142.125 5.37037
142.170319 5.265351
142.207962 2.700758
142.228928 9.429762
142.236816 8.336538
142.34288 11.83333
142.49234 4.408333
142.510971 14.00379
142.823273 5.333333
143.015625 61.36935
143.097153 3.666667
143.355286 5.025641
143.426102 3.669444
143.622086 15.48214
144.252258 4.481482
149.000122 19.844999
149.407562 8.698232
150.068192 137.643295
150.11853 2.4
150.213013 18.44355
151.018448 10.91667
152.026962 492.668701
152.045578 16.0
152.098526 1.6875
152.187958 7.367424
152.225357 10.46944
152.278778 7.668333
153.023468 1655.583008
153.047852 91.768372
153.099823 3.440476
153.268387 43.07576
153.881149 17.56214
153.923111 8.367424
154.004623 140.558594
154.030106 230.205093
154.069901 5.001667
154.148056 4.225
154.298843 4.681667
154.316254 21.156389
154.329102 6.070402
154.362381 5.964285
155.072601 8.516666
155.207092 7.380952
155.442734 14.29876
155.927948 13.88043
156.02298 1098.942993
156.073471 67.201202
156.084198 4.531863
156.104645 24.5228
156.161819 3.926282
156.226883 10.27273
156.258286 7.102273
156.293076 8.03858
156.352829 2.375
156.401825 11.37778
156.503555 9.787037
156.550583 3.926282
156.841553 4.666667
157.408707 22.807409
162.068878 42.120541
162.782852 4.686404
163.005096 30.17173
163.280411 9.213384
164.99762 47.671299
165.020966 156.930603
165.076202 12.74833
165.154984 24.67226
165.24263 17.730339
165.268997 11.70614
165.694138 12.69928
165.812927 4.166667
166.004822 84.23455
166.030609 3184.592041
166.084091 25.270941
166.27681 13.37677
166.303818 15.64477
166.3284 5.208333
166.344101 3.380953
166.444717 22.869049
166.464935 6.09375
166.631393 13.67432
166.6548 28.44149
166.675262 18.92005
166.988495 104.9776
168.019135 51.518539
170.000702 89.192772
170.320831 20.357559
170.375 2.333333
171.034088 892.628479
171.339035 5.041667
171.416458 3.355392
171.516678 8.352941
171.603516 16.61603
172.014389 53.752689
173.084656 3.640152
178.029022 25.757401
179.035522 65.645111
180.041687 32.48497
180.923065 12.44983
181.017517 578.534424
181.049561 133.524506
181.093079 21.180559
181.122375 6.510417
181.185135 9.666667
181.234146 15.5873
181.968002 8.667636
182.00177 101.514702
182.025528 1676.956055
182.084351 13.95448
182.11351 7.673611
182.165421 16.217991
182.212082 2.333333
182.236786 25.31086
182.343201 6.453432
182.37117 3.115741
182.391525 4.694444
182.410538 13.9697
182.45639 5.346264
182.696121 5.415
182.827805 11.46705
183.033432 4917.48584
183.09198 25.515791
183.109543 35.174438
183.130157 43.54018
183.172165 49.087749
183.196976 17.013889
183.228897 26.097219
183.256134 12.88889
183.298508 10.07018
183.318405 46.786152
183.350311 2.683333
183.374207 19.367729
183.407974 16.33576
183.442978 1.720238
183.467499 51.80983
183.606354 12.02341
183.71257 27.234131
183.864212 33.307968
184.067032 15.33667
184.25116 4.669117
184.449539 8.363095
185.850708 3.375
190.004532 6.805555
190.998444 23.54402
191.038177 19.26042
191.085083 3.375
191.628922 7.880952
196.060623 9.005952
197.041306 29.872721
197.916046 3.003788
198.018997 12.8648
199.027817 693.802917
199.084564 2.520833
199.26915 10.37337
199.318253 2.016667
199.362534 9.213384
199.416504 13.125
200.051804 160.294403
200.385483 9.445371
205.984726 5.333333
206.049713 294.171387
206.078842 4.013889
206.178711 3.055556
206.223679 3.342592
206.238663 6.020833
207.030777 126.6856
207.729736 33.19025
207.775299 5.391026
207.790344 3.669872
207.813843 16.0
207.975754 5.028846
208.056717 12.375
208.116608 4.016667
208.593491 6.35307
208.683929 4.382936
208.759354 3.35
208.804565 1.6875
208.911942 22.01136
208.930252 28.68297
208.978439 24.21365
209.01297 4661.381836
209.047531 969.241211
209.111313 4.001812
209.126419 3.010417
209.149689 41.966541
209.177078 8.594136
209.211945 12.42178
209.223038 14.58542
209.259491 42.12112
209.276611 16.08889
209.300949 25.41819
209.336472 10.09643
209.361008 9.747549
209.395599 33.29266
209.513596 10.67708
209.529083 8.429762
209.603867 6.6875
209.670135 13.7619
209.695068 6.345238
209.726608 8.966954
209.785919 15.70259
209.832565 5.801667
209.871292 8.339286
209.971558 27.03009
210.020386 4521.491211
210.087784 22.191179
210.133606 15.06907
210.184235 4.333333
210.195526 29.6147
210.230621 7.564815
210.267456 8.541667
210.349838 6.833333
210.370956 40.731709
210.410904 4.683333
210.45697 2.449074
210.55687 7.786765
210.571579 10.40761
210.615387 13.5571
210.633957 13.61187
210.66748 11.42803
210.705994 42.582561
210.754547 9.003472
210.855637 6.506945
210.936646 7.058201
211.078049 114.216599
211.254837 6.692308
211.695557 7.240079
212.152878 5.884804
212.455093 8.666667
223.060242 17.333941
223.652954 3.335526
224.060181 86.589523
225.592117 27.1047
225.702255 1.694445
225.728668 10.74228
226.015717 71.258018
226.063065 2.005952
227.022263 411.869598
227.236206 5.669445
227.662918 4.387821
227.781967 10.66667
228.949966 14.88971
240.057114 31.21818
249.370117 45.913651
251.059982 47.857319
251.499329 4.013889
252.051285 30.223709
253.036392 216.820801
253.099945 3.010417
253.487518 6.482143
253.571442 4.761364
253.765747 8.966954
269.0672 321.92099
269.148193 8.201667
269.925323 15.08884
285.063751 24.08333
311.48999 10.20833
313.060242 172.610596
313.38858 2.482143
313.46402 12.32051
958.872803 8.33772
