>compound MLS000069756-01!17ALPHA-ETHYLNYL-1,3,5[10]ESTRATRIENE-3,17BETA-DIOL 3-CYCLOPENTYL ETHER
>formula C25H32O2
>ionization [M+H]+
>parentmass 365.249
#inchi InChI=1S/C25H32O2/c1-3-25(26)15-13-23-22-10-8-17-16-19(27-18-6-4-5-7-18)9-11-20(17)21(22)12-14-24(23,25)2/h1,9,11,16,18,21-23,26H,4-8,10,12-15H2,2H3/t21-,22-,23+,24+,25+/m1/s1
#inchikey PWZUUYSISTUNDW
#Ion_Source LC-ESI
#Instrument qTof
#Compound_Source NIH Pharmacologically Active Library
#PI Dorrestein
#Data_Collector VP/LMS
#Scan -1
#Precursor_MZ 365.249
#ExactMass 364.24
#Charge 1
#CAS_Number N/A
#Pubmed_ID N/A
#Smiles C[C@@]12CC[C@H]3[C@@H](CCc4cc(OC5CCCC5)ccc34)[C@@H]2CC[C@@]1(O)C#C
#INCHI_AUX N/A
#Library_Class 1
#SpectrumID CCMSLIB00000084781
#IonMode Positive
#UpdateWorkflowName UPDATE-SINGLE-ANNOTATED-GOLD
#LibraryQualityString Gold
#TaskID d252d724072548979f1f6f1ced849daf
##Scan# 3025
#SpectrumFile p3-A08_GA8_01_18229.mzXML
#LibraryName Pharm_Active_Library.mgf
#MQScore -1
#Organism Pharm_Active_Library
#TIC_Query 0
#RT_Query -1
#MZErrorPPM -1
#SharedPeaks 0
#MassDiff 0
#LibMZ -1
#SpecMZ 365.249
#SpecCharge 0
#internalFilename spec-00000.mgf

>collision 10
45.165783 136.0
45.55587 180.0
45.614998 44.0
45.643234 48.0
46.071838 180.0
46.380375 164.0
46.811058 96.0
47.092003 220.0
47.156219 224.0
47.391598 220.0
47.413521 136.0
47.899918 92.0
48.179962 144.0
48.521805 108.0
48.685539 176.0
49.474747 172.0
49.863297 156.0
49.919533 108.0
50.233616 120.0
50.352184 132.0
50.717224 164.0
51.71571 116.0
52.133064 160.0
52.216446 176.0
53.081501 72.0
53.289066 160.0
53.495583 256.0
54.199551 184.0
54.300701 116.0
55.178345 132.0
56.110718 192.0
56.600796 184.0
56.761131 256.0
56.975765 160.0
57.768734 52.0
57.818665 128.0
58.704353 164.0
59.48312 96.0
59.892143 80.0
60.205235 168.0
60.455673 208.0
61.792316 108.0
61.811092 144.0
62.1166 64.0
63.593533 112.0
64.143883 128.0
65.118324 148.0
65.208298 148.0
67.692154 132.0
67.74456 212.0
68.084084 164.0
68.854836 108.0
69.139191 240.0
69.671448 144.0
70.352577 40.0
70.775566 56.0
70.817436 144.0
71.042053 136.0
71.346016 160.0
72.777046 176.0
73.198738 172.0
73.662643 204.0
73.867767 160.0
74.778885 156.0
74.830528 184.0
75.427429 212.0
75.486206 180.0
75.853249 140.0
76.186432 180.0
76.642265 168.0
78.123444 148.0
79.960136 152.0
81.026169 120.0
81.699394 184.0
81.868591 184.0
81.902809 84.0
82.579659 116.0
82.880173 224.0
83.065094 120.0
84.182594 148.0
85.202911 152.0
85.373756 84.0
85.898674 60.0
88.5811 304.0
88.732903 152.0
89.029366 188.0
90.439613 148.0
90.841324 168.0
91.012131 224.0
91.054855 428.0
91.139397 148.0
92.547043 148.0
92.679199 152.0
93.067482 228.0
93.168442 176.0
93.830475 188.0
94.075478 128.0
95.086281 204.0
95.280037 120.0
96.817078 128.0
97.077713 172.0
97.27784 168.0
97.541061 140.0
97.840073 132.0
97.952316 200.0
98.171089 164.0
98.350624 80.0
98.552055 160.0
98.639008 52.0
98.882294 36.0
99.167496 188.0
99.211105 104.0
99.999687 188.0
100.316391 152.0
100.877327 100.0
101.153381 36.0
101.756798 80.0
101.841141 112.0
102.765137 156.0
102.83577 52.0
103.054291 304.0
103.472519 64.0
103.646706 48.0
104.210762 136.0
104.562553 164.0
104.923096 140.0
105.071152 1048.0
105.208702 52.0
106.074013 160.0
106.338608 120.0
106.379662 156.0
106.778275 96.0
107.010803 220.0
107.049843 4388.0
107.086983 380.0
107.134369 52.0
107.3013 72.0
107.338417 80.0
107.982727 104.0
107.999275 92.0
108.052986 548.0
108.228981 60.0
108.554306 212.0
108.614449 36.0
108.97567 108.0
109.065483 200.0
109.102463 680.0
109.254257 68.0
109.335403 64.0
109.368706 68.0
109.487381 136.0
109.918892 168.0
109.946022 184.0
110.069183 124.0
110.646248 140.0
111.077942 164.0
111.289902 60.0
111.349846 44.0
113.050003 176.0
113.306198 132.0
113.730309 148.0
114.316879 136.0
114.668274 192.0
114.981781 192.0
115.054787 276.0
116.059807 208.0
116.089943 132.0
116.111382 88.0
116.689003 92.0
117.070709 808.0
117.296082 48.0
118.060387 144.0
118.079849 148.0
118.226959 60.0
118.744743 56.0
118.970406 96.0
119.055038 204.0
119.089264 356.0
119.135445 56.0
119.246262 84.0
120.090454 152.0
121.0634 932.0
121.101891 96.0
121.76754 124.0
122.068916 260.0
123.027031 112.0
123.084435 196.0
123.323029 88.0
123.391548 180.0
123.608307 132.0
124.084511 140.0
124.359581 232.0
124.739403 204.0
124.939545 192.0
124.961792 188.0
125.075287 200.0
125.400475 168.0
126.124886 168.0
126.177284 84.0
126.651688 108.0
127.057426 140.0
128.064163 432.0
129.070541 516.0
129.279083 36.0
129.952057 144.0
130.073334 136.0
130.856628 72.0
131.048874 816.0
131.086014 1496.0
131.348862 148.0
131.549667 76.0
132.053406 480.0
132.088943 168.0
132.787537 136.0
132.84259 216.0
133.007797 128.0
133.064667 1344.0
133.103378 524.0
133.196091 128.0
133.30867 64.0
134.069626 428.0
134.531677 120.0
134.621719 176.0
134.781113 160.0
134.83194 140.0
135.077484 176.0
135.116882 248.0
136.050293 120.0
136.080475 136.0
136.545227 80.0
137.094208 176.0
138.047073 96.0
138.571381 160.0
138.651047 132.0
139.952423 144.0
140.983246 76.0
141.070648 112.0
141.82579 168.0
142.036819 140.0
142.084595 184.0
143.080597 476.0
143.761719 96.0
143.895386 148.0
144.012405 184.0
144.057571 136.0
144.090057 624.0
144.201141 52.0
144.275253 72.0
144.765732 148.0
144.844772 100.0
145.007706 124.0
145.026871 208.0
145.064835 620.0
145.101608 584.0
145.225876 36.0
145.693954 212.0
146.080994 244.0
146.108185 212.0
147.081833 412.0
147.118439 156.0
147.607666 136.0
148.045654 144.0
148.124374 388.0
148.217636 48.0
148.273376 220.0
148.452774 184.0
149.02562 156.0
149.059631 300.0
149.076645 152.0
149.097534 316.0
149.1353 208.0
149.716431 44.0
150.02832 88.0
151.113159 156.0
151.636688 44.0
153.073715 184.0
153.10582 48.0
153.127991 196.0
154.075394 192.0
155.057861 148.0
155.0867 496.0
156.091034 308.0
157.064133 840.0
157.099609 324.0
157.348465 80.0
158.069595 332.0
158.10585 260.0
158.130875 52.0
158.960373 140.0
159.081619 700.0
159.11618 956.0
159.146118 68.0
159.239029 44.0
160.08931 204.0
160.120667 296.0
160.293091 52.0
160.613281 172.0
161.095352 424.0
161.12825 124.0
161.193939 128.0
161.272278 112.0
162.495377 136.0
162.88887 60.0
163.214157 64.0
164.986115 168.0
165.072845 296.0
166.077896 284.0
166.723938 192.0
167.082031 176.0
167.197128 140.0
167.972656 52.0
169.066162 116.0
169.101273 344.0
169.189789 56.0
170.078903 124.0
170.106415 148.0
171.083237 312.0
171.11647 872.0
172.08078 148.0
172.125809 132.0
173.061569 156.0
173.093628 152.0
173.133743 408.0
173.213135 212.0
173.325775 72.0
173.810867 52.0
174.041855 64.0
174.139008 148.0
174.985733 72.0
175.113815 1096.0
175.136139 184.0
176.116989 180.0
177.129242 316.0
177.543549 76.0
178.079651 212.0
178.97583 188.0
179.085495 284.0
180.08252 72.0
181.072937 264.0
181.097534 96.0
182.071609 152.0
183.079681 704.0
183.118607 176.0
183.379944 36.0
183.409592 56.0
183.698105 152.0
185.008743 124.0
185.062881 144.0
185.092194 440.0
185.130127 416.0
186.098602 136.0
187.112701 412.0
187.208008 152.0
188.006744 116.0
188.104996 120.0
189.122696 592.0
189.486023 156.0
190.130219 316.0
190.160583 40.0
191.09024 152.0
191.136078 160.0
191.460968 128.0
191.860504 128.0
193.094757 192.0
193.5569 80.0
194.079895 208.0
194.107803 152.0
195.082367 312.0
195.118973 148.0
196.087296 200.0
196.11969 364.0
196.617538 156.0
196.941391 144.0
197.096786 632.0
197.135727 164.0
198.10524 156.0
198.643234 208.0
199.060104 176.0
199.108673 280.0
199.159714 104.0
200.079224 140.0
200.107391 168.0
201.043198 192.0
201.12944 148.0
202.032104 68.0
203.063156 80.0
203.102859 140.0
204.088287 124.0
205.110306 176.0
206.107727 140.0
207.07785 140.0
207.120682 160.0
208.087967 140.0
209.090347 476.0
209.13179 144.0
210.099976 380.0
211.090652 168.0
211.112228 208.0
211.152832 144.0
211.99382 156.0
212.13121 108.0
212.791473 124.0
213.087708 176.0
213.125763 624.0
213.154526 48.0
214.123245 64.0
214.703201 56.0
215.109802 272.0
216.111145 124.0
216.149185 156.0
217.101212 128.0
217.162811 212.0
217.943665 168.0
218.102356 112.0
218.678848 148.0
219.126434 184.0
219.969849 104.0
220.126328 224.0
221.09108 112.0
221.137375 80.0
222.100311 164.0
223.114487 436.0
223.148575 148.0
224.122009 208.0
225.134369 344.0
226.134567 204.0
226.523819 64.0
227.099319 128.0
227.141586 128.0
227.798691 88.0
227.942902 160.0
228.108551 316.0
228.156296 148.0
228.553299 56.0
228.586395 68.0
229.152466 148.0
229.173553 168.0
229.91835 164.0
231.629639 40.0
232.122589 196.0
232.760849 148.0
233.128403 124.0
233.572296 152.0
233.906998 152.0
235.095642 176.0
235.150574 112.0
236.116379 152.0
237.118988 160.0
238.13443 312.0
239.14035 500.0
239.522858 128.0
240.102295 44.0
240.14856 152.0
240.241104 112.0
241.121078 196.0
241.148895 128.0
241.170532 188.0
243.515961 52.0
247.150803 148.0
247.501358 60.0
249.110245 136.0
249.132233 308.0
251.144318 328.0
252.144577 128.0
253.146851 204.0
256.10083 136.0
258.088989 176.0
261.872467 60.0
262.043182 68.0
264.228882 128.0
265.145233 212.0
265.258698 36.0
266.160583 76.0
271.554962 260.0
271.640228 36.0
277.170746 120.0
278.100952 188.0
279.171265 200.0
280.177551 416.0
281.182861 268.0
291.134705 100.0
296.891815 80.0
297.178436 352.0
298.191254 148.0
300.20343 124.0
301.653534 100.0
304.178741 64.0
307.17746 656.0
307.610931 56.0
308.18338 408.0
310.581665 64.0
311.165924 116.0
318.268005 36.0
319.159851 156.0
340.332184 60.0
361.29483 92.0
365.152405 140.0
368.147858 124.0
369.321136 56.0
445.223602 116.0
453.11557 80.0
478.778351 108.0
498.291565 100.0
535.268372 196.0
632.343201 168.0
667.553589 96.0
760.488281 40.0
847.169495 152.0
881.656982 140.0
953.63623 204.0
981.376038 192.0
986.1828 140.0
1013.095886 112.0
1044.027222 48.0
1048.494995 216.0
1058.514404 144.0
1066.383545 232.0
1082.949219 164.0
1113.107788 72.0
1125.24585 68.0
1125.426147 36.0
1138.389648 148.0
1155.625122 52.0
1174.067383 68.0
1177.561646 124.0
1193.748779 208.0
1199.53894 144.0
1223.389648 124.0
1226.942505 148.0
1235.581421 168.0
1236.225098 56.0
1266.003052 172.0
1281.44519 220.0
1288.508301 172.0
1291.224609 40.0
1294.466431 128.0
1302.110962 136.0
1304.19458 204.0
1329.066162 140.0
1332.73291 112.0
1333.532227 120.0
1334.370117 136.0
1345.536865 336.0
1345.967651 212.0
1347.969116 200.0
1350.966675 152.0
1351.339844 172.0
1356.861938 224.0
1372.66272 48.0
1400.267822 168.0
1414.633789 208.0
1416.213745 144.0
1420.673706 216.0
1431.549438 160.0
1431.782959 164.0
1432.935425 240.0
1434.653687 168.0
1441.061035 196.0
1444.410034 204.0
1452.75769 120.0
1462.872192 212.0
1480.861816 184.0
1485.414673 172.0
1485.690918 188.0
1488.845581 140.0
1489.936279 160.0
1490.051514 236.0
1490.9198 232.0
1491.99585 184.0
1495.949951 136.0
1496.635132 204.0
1497.397461 192.0
1499.978638 192.0
