>compound MLS002154125-01!Oxyphenbutazone129-20-4
>formula C19H20N2O3
>ionization [M+H]+
>parentmass 325.156
#inchi InChI=1S/C19H20N2O3/c1-2-3-9-17-18(23)20(14-7-5-4-6-8-14)21(19(17)24)15-10-12-16(22)13-11-15/h4-8,10-13,17,22H,2-3,9H2,1H3
#inchikey HFHZKZSRXITVMK
#Ion_Source LC-ESI
#Instrument qTof
#Compound_Source NIH Pharmacologically Active Library
#PI Dorrestein
#Data_Collector VP/LMS
#Scan -1
#Precursor_MZ 325.156
#ExactMass 324.147
#Charge 1
#CAS_Number N/A
#Pubmed_ID N/A
#Smiles CCCCC1C(=O)N(N(C1=O)c2ccc(O)cc2)c3ccccc3
#INCHI_AUX N/A
#Library_Class 1
#SpectrumID CCMSLIB00000085768
#IonMode Positive
#UpdateWorkflowName UPDATE-SINGLE-ANNOTATED-GOLD
#LibraryQualityString Gold
#TaskID d252d724072548979f1f6f1ced849daf
##Scan# 2015
#SpectrumFile p4-F03_GF3_01_18387.mzXML
#LibraryName Pharm_Active_Library.mgf
#MQScore -1
#Organism Pharm_Active_Library
#TIC_Query 0
#RT_Query -1
#MZErrorPPM -1
#SharedPeaks 0
#MassDiff 0
#LibMZ -1
#SpecMZ 325.156
#SpecCharge 0
#internalFilename spec-00000.mgf

>collision 10
44.977375 132.0
45.086899 124.0
45.500816 136.0
46.649178 168.0
46.719894 164.0
46.783859 256.0
47.006027 188.0
47.056641 228.0
47.58366 208.0
48.264332 72.0
48.462269 100.0
48.555149 176.0
48.742565 232.0
48.967937 196.0
49.054333 164.0
49.375484 128.0
49.647182 168.0
50.108246 164.0
50.363586 188.0
50.533234 180.0
50.755615 172.0
50.921658 104.0
50.968536 140.0
52.532051 32.0
53.075871 172.0
53.199196 144.0
54.116257 88.0
54.637295 224.0
55.032295 188.0
55.593323 136.0
55.735882 160.0
55.784927 224.0
56.06625 188.0
56.125877 152.0
56.298985 168.0
56.50676 140.0
56.59507 160.0
57.139915 216.0
57.218178 136.0
58.211613 184.0
58.985611 184.0
59.155415 196.0
59.262623 204.0
59.661671 132.0
59.709339 120.0
59.889507 144.0
60.845119 220.0
60.866856 192.0
62.052731 136.0
62.153114 196.0
62.242588 196.0
62.564915 48.0
62.752399 120.0
62.791824 120.0
64.144379 136.0
64.580307 140.0
64.703522 160.0
64.745155 208.0
64.860519 76.0
65.500069 188.0
65.537125 176.0
66.37606 184.0
67.368912 160.0
67.444084 136.0
67.963242 212.0
68.168503 184.0
68.2211 148.0
68.384621 176.0
68.441566 68.0
68.857147 164.0
68.916618 144.0
68.94471 128.0
69.449692 160.0
69.47789 160.0
69.969833 80.0
70.044777 180.0
70.284859 136.0
70.496933 88.0
70.675865 152.0
71.210648 240.0
71.414024 52.0
71.838516 144.0
71.924583 196.0
72.020828 100.0
72.259193 152.0
72.330269 140.0
72.896759 120.0
72.934151 152.0
72.974945 108.0
73.506401 132.0
73.707901 108.0
73.979851 136.0
74.99852 196.0
75.5961 92.0
75.876709 52.0
75.949547 36.0
76.109207 180.0
76.557861 160.0
77.053253 132.0
77.920517 140.0
78.900444 152.0
80.203468 220.0
80.265869 196.0
81.00222 160.0
81.15815 164.0
81.246033 224.0
82.398277 208.0
83.102592 260.0
83.416786 116.0
83.460426 156.0
84.119957 156.0
84.397667 172.0
85.171059 188.0
85.220665 196.0
85.376419 164.0
87.242645 208.0
87.391434 220.0
87.445404 112.0
87.462151 132.0
87.532898 144.0
87.8311 128.0
87.868416 120.0
88.14476 156.0
88.591934 164.0
89.459557 136.0
90.537727 148.0
91.055489 360.0
91.131477 216.0
91.357719 216.0
91.641403 256.0
92.050552 964.0
92.175682 120.0
92.198616 160.0
92.21199 124.0
92.535286 180.0
93.036179 232.0
93.056198 476.0
93.649109 152.0
94.034729 188.0
94.062408 800.0
95.173042 92.0
95.78373 164.0
95.98642 40.0
96.046883 192.0
96.078094 44.0
97.419136 104.0
97.466293 48.0
98.157227 108.0
99.050568 176.0
99.08226 212.0
99.179367 204.0
100.53582 88.0
101.20549 220.0
101.479996 176.0
102.036148 172.0
102.176941 216.0
102.325874 192.0
102.400383 180.0
102.702721 60.0
102.868187 172.0
102.914627 256.0
102.963089 152.0
103.426109 152.0
103.709686 248.0
103.731987 152.0
103.912483 204.0
104.047134 700.0
104.080948 56.0
104.809166 228.0
105.031387 124.0
105.063156 196.0
105.729774 104.0
106.028618 524.0
106.065033 1252.0
106.166542 92.0
106.992569 176.0
107.033623 168.0
107.048485 284.0
107.138794 92.0
107.79287 180.0
108.017815 220.0
108.043846 2172.0
108.103058 212.0
108.276962 72.0
108.696381 268.0
109.030647 320.0
109.048782 264.0
109.213043 56.0
109.381592 164.0
109.627357 40.0
110.040756 132.0
110.060432 396.0
110.839867 72.0
110.914848 128.0
111.189613 164.0
111.447914 236.0
111.519371 188.0
113.31736 192.0
114.089897 164.0
114.430305 164.0
114.933334 164.0
115.052834 188.0
115.428909 144.0
116.062752 164.0
116.399643 92.0
116.85318 204.0
117.059723 180.0
117.881729 88.0
117.981155 224.0
118.066559 312.0
118.671814 160.0
118.704338 204.0
118.927803 240.0
119.038528 204.0
119.067833 180.0
119.255791 60.0
119.40799 140.0
119.782372 180.0
119.958885 144.0
120.043076 1968.0
120.066452 84.0
120.075272 180.0
120.16243 104.0
120.290466 160.0
120.340683 156.0
120.393089 96.0
120.491386 36.0
120.7034 180.0
120.810577 204.0
121.030373 244.0
121.046921 388.0
121.156479 56.0
121.244125 284.0
121.643326 148.0
121.808022 160.0
122.034752 216.0
122.059334 900.0
122.131149 76.0
122.406258 48.0
122.542824 96.0
123.065567 200.0
123.653603 120.0
123.857307 152.0
124.012413 240.0
124.039009 184.0
124.189796 200.0
124.380623 196.0
124.556046 148.0
124.676025 148.0
125.058571 112.0
125.296852 136.0
125.517509 88.0
126.010803 180.0
126.381966 132.0
126.62822 40.0
127.058617 132.0
128.049942 496.0
128.302322 56.0
129.071686 156.0
130.065781 372.0
130.723694 180.0
131.044769 188.0
131.07399 232.0
131.138199 228.0
131.653824 216.0
132.042282 252.0
132.078949 496.0
132.332977 124.0
132.876175 180.0
133.046249 340.0
134.058975 676.0
134.094284 164.0
134.888992 168.0
135.030273 224.0
135.065353 148.0
135.917313 188.0
136.005493 180.0
136.034943 392.0
136.07045 204.0
136.10997 128.0
136.695297 40.0
137.038055 160.0
137.36911 192.0
138.039444 160.0
138.655151 76.0
139.063263 264.0
139.598923 172.0
140.057861 200.0
140.295883 168.0
140.501053 144.0
140.781952 156.0
141.020569 224.0
141.849045 180.0
142.057724 124.0
142.249939 80.0
142.34491 132.0
142.779816 224.0
143.066589 192.0
143.089157 148.0
143.732712 124.0
144.000092 116.0
144.044189 212.0
144.078262 168.0
145.073776 248.0
145.156021 44.0
145.271149 104.0
145.527954 116.0
146.027802 136.0
146.056229 536.0
146.620087 28.0
147.053406 168.0
147.230469 64.0
147.680008 48.0
147.701141 76.0
147.793716 112.0
147.880829 168.0
148.037613 6804.0
148.075302 440.0
148.11499 388.0
148.246536 52.0
148.576309 40.0
148.87001 276.0
148.955017 40.0
149.047333 5044.0
149.115387 208.0
149.185883 128.0
149.351242 36.0
149.516693 152.0
149.635971 28.0
149.945343 44.0
150.011154 56.0
150.048828 856.0
150.09404 128.0
151.048126 380.0
151.259445 120.0
151.333618 80.0
151.501877 48.0
152.036423 168.0
152.539948 144.0
153.872757 140.0
154.064377 244.0
154.258148 192.0
154.730667 96.0
155.060135 372.0
155.816986 112.0
156.043152 192.0
156.075974 224.0
156.877182 164.0
157.070816 168.0
157.089279 236.0
157.575989 160.0
157.723434 184.0
158.058792 620.0
158.085831 176.0
158.634613 116.0
159.066788 188.0
159.367462 140.0
160.04039 508.0
160.063095 600.0
160.111847 1492.0
160.135193 208.0
160.374115 128.0
160.558167 108.0
161.075394 308.0
161.143814 148.0
162.055496 1504.0
162.090164 552.0
162.126709 512.0
162.848709 44.0
163.060577 592.0
163.12822 116.0
163.369812 36.0
163.519943 48.0
164.06189 344.0
164.107315 176.0
164.20787 84.0
164.613647 96.0
166.069901 116.0
169.088501 232.0
170.095413 252.0
172.083176 100.0
172.109833 484.0
172.410843 40.0
173.06778 140.0
173.546951 192.0
174.050369 272.0
174.089157 140.0
174.28978 56.0
174.352859 96.0
175.059265 444.0
175.086868 220.0
175.339798 240.0
175.64566 40.0
176.03363 272.0
176.067627 208.0
176.105347 480.0
177.046494 176.0
177.102127 124.0
177.648193 68.0
178.052383 156.0
178.086182 28.0
178.122467 536.0
178.966446 76.0
179.070297 160.0
179.120911 128.0
180.123901 200.0
181.076141 148.0
181.802689 144.0
182.057175 368.0
182.083481 332.0
183.046021 144.0
183.067276 212.0
184.07077 188.0
185.063065 524.0
185.115906 120.0
186.093445 112.0
186.964676 92.0
188.076706 220.0
188.109009 360.0
189.074326 132.0
190.046112 1188.0
190.091049 136.0
190.121353 200.0
191.052734 104.0
191.125534 184.0
193.060791 180.0
196.074219 212.0
196.103729 124.0
197.070923 188.0
197.740448 128.0
197.799225 44.0
198.076309 672.0
198.80545 104.0
199.079285 428.0
200.072342 268.0
200.107056 388.0
200.12944 156.0
201.099228 152.0
201.534134 120.0
202.089752 176.0
203.088348 92.0
203.670242 40.0
204.062424 260.0
204.100082 3264.0
204.134216 144.0
204.398056 68.0
205.073013 188.0
205.104523 788.0
206.08519 148.0
206.113052 224.0
206.411972 56.0
206.689453 44.0
207.116028 76.0
207.809799 132.0
208.033661 88.0
209.105835 176.0
209.883667 172.0
210.049896 164.0
210.212509 44.0
212.141739 196.0
213.099472 144.0
214.084244 348.0
214.863861 180.0
215.953476 48.0
216.096817 208.0
216.169968 136.0
216.966675 180.0
217.139679 120.0
218.140961 176.0
220.002808 168.0
221.123108 176.0
222.078827 100.0
222.551987 92.0
222.837128 136.0
223.110626 208.0
224.065643 216.0
224.093643 168.0
227.081207 928.0
227.118729 184.0
228.054977 140.0
228.086945 128.0
231.034317 120.0
231.243118 128.0
232.094635 708.0
235.093826 216.0
236.0867 168.0
236.63443 112.0
237.098511 240.0
237.734879 120.0
241.138077 96.0
243.517624 76.0
248.095398 184.0
249.105911 164.0
251.09523 148.0
251.972794 76.0
253.098801 168.0
254.179733 56.0
254.910095 156.0
257.998688 156.0
262.132843 140.0
263.077881 112.0
263.119843 104.0
263.177979 160.0
264.07959 140.0
266.06604 196.0
267.936096 36.0
268.076202 148.0
269.082977 216.0
270.080872 132.0
278.094513 192.0
279.08783 160.0
280.116211 64.0
281.092072 196.0
281.156525 144.0
282.091766 168.0
283.139069 176.0
288.759735 80.0
294.688446 80.0
299.081573 92.0
324.263611 108.0
325.160248 176.0
327.158844 108.0
355.384094 124.0
376.332153 72.0
395.461945 40.0
442.27298 44.0
536.744202 60.0
604.509399 36.0
733.412964 56.0
791.348633 196.0
842.519592 80.0
845.289185 196.0
850.812927 168.0
867.210876 136.0
876.997437 204.0
885.630188 208.0
910.820679 108.0
913.892761 224.0
924.156372 72.0
925.687866 180.0
932.35199 40.0
941.695129 164.0
954.227112 152.0
971.607056 228.0
977.416504 108.0
1000.210693 60.0
1005.959778 96.0
1033.153687 64.0
1037.925415 104.0
1053.540039 76.0
1055.136353 172.0
1062.584595 240.0
1063.751953 216.0
1070.05896 56.0
1070.410522 156.0
1079.533569 108.0
1089.634644 132.0
1092.185303 124.0
1102.213135 116.0
1127.706909 176.0
1131.499878 120.0
1133.690308 144.0
1138.493774 144.0
1139.857422 140.0
1140.106079 136.0
1151.140991 136.0
1152.343384 188.0
1159.557129 168.0
1190.092407 120.0
1208.288452 124.0
1222.798584 100.0
1223.926392 128.0
1227.361694 40.0
1229.119507 128.0
1231.269653 160.0
1235.834595 264.0
1242.546753 156.0
1247.09729 164.0
1249.804932 152.0
1256.724243 116.0
1269.010254 192.0
1270.677124 136.0
1272.785156 208.0
1273.197021 60.0
1277.75354 232.0
1278.358398 164.0
1281.819214 116.0
1286.626709 124.0
1293.933472 172.0
1298.598633 208.0
1314.404419 176.0
1314.794189 224.0
1321.297607 216.0
1324.316284 204.0
1327.80249 196.0
1329.166382 164.0
1331.997925 152.0
1333.1604 236.0
1333.872681 200.0
1334.105347 128.0
1337.356934 152.0
1339.53418 56.0
1343.653198 128.0
1347.932007 124.0
1356.356079 120.0
1359.054932 124.0
1368.161377 156.0
1373.02478 132.0
1375.415283 204.0
1382.199951 104.0
1383.761841 64.0
1386.517456 184.0
1388.445068 236.0
1389.379761 272.0
1393.886719 196.0
1396.630127 184.0
1397.269897 124.0
1404.630249 176.0
1404.697388 192.0
1408.38501 152.0
1418.456909 132.0
1424.903442 96.0
1430.732178 180.0
1431.108643 56.0
1434.86084 168.0
1443.710693 152.0
1446.154419 156.0
1448.895752 152.0
1450.108154 136.0
1450.646362 172.0
1456.094482 152.0
1457.819092 164.0
1461.705078 196.0
1463.349121 120.0
1471.553223 156.0
1473.202881 152.0
1473.508545 56.0
1476.726807 64.0
1480.5 96.0
1481.817505 128.0
1490.956787 184.0
1493.48645 136.0
1494.15564 140.0
1503.610718 184.0
