>compound MLS001074086-01!
>formula C10H15NO
>ionization [M+H]+
>parentmass 166.121918
#inchi InChI=1S/C10H15NO/c1-4-11(2,3)9-6-5-7-10(12)8-9/h5-8H,4H2,1-3H3
#inchikey VWLHWLSRQJQWRG
#origInchi InChI=1S/C10H15NO.ClH/c1-4-11(2,3)9-6-5-7-10(12)8-9;/h5-8H,4H2,1-3H3;1H
#Ion_Source LC-ESI
#Instrument qTof
#Compound_Source NIH Pharmacologically Active Library
#PI Dorrestein
#Data_Collector VP/LMS
#Scan -1
#Precursor_MZ 166.122
#ExactMass 166.123
#Charge 1
#CAS_Number N/A
#Pubmed_ID N/A
#Smiles CC[N+](C)(C)c1cccc(O)c1.[Cl-]
#INCHI_AUX N/A
#Library_Class 1
#SpectrumID CCMSLIB00000085209
#IonMode Positive
#UpdateWorkflowName UPDATE-SINGLE-ANNOTATED-GOLD
#LibraryQualityString Gold
#TaskID d252d724072548979f1f6f1ced849daf
##Scan# 299
#SpectrumFile p3-G02_GG2_01_18295.mzXML
#LibraryName Pharm_Active_Library.mgf
#MQScore -1
#Organism Pharm_Active_Library
#TIC_Query 0
#RT_Query -1
#MZErrorPPM -1
#SharedPeaks 0
#MassDiff 0
#LibMZ -1
#SpecMZ 166.122
#SpecCharge 0
#internalFilename spec-00000.mgf

>collision 10
47.280357 120.0
49.364029 160.0
49.482971 172.0
51.015251 152.0
52.602642 184.0
53.721577 256.0
53.772648 164.0
54.01083 172.0
56.699997 48.0
58.11459 176.0
58.392601 116.0
60.205814 148.0
63.556278 192.0
70.133728 176.0
76.388184 120.0
77.528397 168.0
79.368896 148.0
81.72506 124.0
88.458679 192.0
90.132454 144.0
90.713295 168.0
91.009499 164.0
93.789436 96.0
94.039665 220.0
94.78479 200.0
94.802231 228.0
96.245689 152.0
98.287216 108.0
98.41552 232.0
98.636803 104.0
98.688202 176.0
100.705399 212.0
100.955231 132.0
102.757118 84.0
103.053932 192.0
106.055847 180.0
107.489372 176.0
108.046478 228.0
108.078308 152.0
109.448334 152.0
110.09481 176.0
116.928833 104.0
118.063766 200.0
119.048965 196.0
119.769722 68.0
119.865585 204.0
120.043663 336.0
120.083603 172.0
121.053162 296.0
122.057053 184.0
123.062851 488.0
124.523285 164.0
126.221519 140.0
129.586777 176.0
133.060593 152.0
134.058914 112.0
135.990143 124.0
136.019974 192.0
136.073975 5116.0
136.371063 44.0
136.422211 48.0
136.624542 44.0
136.664093 116.0
136.792099 152.0
137.081268 2208.0
137.538055 28.0
138.091125 628.0
138.154999 144.0
138.365646 124.0
138.475708 76.0
138.888245 112.0
138.958633 124.0
142.768997 76.0
143.068817 72.0
146.697205 20.0
150.097778 124.0
151.777725 68.0
166.121918 280.0
167.122391 200.0
942.460266 216.0
1033.112427 228.0
1033.950684 204.0
1076.394775 188.0
1111.031128 236.0
1120.945068 236.0
1165.943359 144.0
1256.584839 176.0
1325.667114 148.0
1398.934448 52.0
1438.427612 140.0
1449.49292 56.0
1482.95105 136.0
1493.424438 156.0
