>compound Lopinavir
>formula C37H48N4O5 
>ionization [M+H]+
>parentmass 629.371
#inchi InChI=1S/C37H48N4O5/c1-25(2)34(41-20-12-19-38-37(41)45)36(44)39-30(21-28-15-7-5-8-16-28)23-32(42)31(22-29-17-9-6-10-18-29)40-33(43)24-46-35-26(3)13-11-14-27(35)4/h5-11,13-18,25,30-32,34,42H,12,19-24H2,1-4H3,(H,38,45)(H,39,44)(H,40,43)/t30-,31-,32-,34-/m0/s1
#inchikey KJHKTHWMRKYKJE
#Ion_Source LC-ESI
#Instrument qTof
#Compound_Source Isolated
#PI Sirenas
#Data_Collector Ed Esquenazi 
#Scan -1
#Precursor_MZ 629.371
#ExactMass 0.0
#Charge 1
#CAS_Number N/A
#Pubmed_ID N/A
#Smiles N/A
#INCHI_AUX N/A
#Library_Class 3
#SpectrumID CCMSLIB00000006307
#IonMode Positive
#UpdateWorkflowName UPDATE-SINGLE-ANNOTATED-BRONZE
#LibraryQualityString Bronze
#TaskID d19310cd93df49b68e9fcbec27720eb5
##Scan# 3
#SpectrumFile Lopinavir.mgf
#LibraryName fda_library.mgf
#MQScore -1
#Organism fda_library
#TIC_Query 0
#RT_Query -1
#MZErrorPPM -1
#SharedPeaks 0
#MassDiff 0
#LibMZ -1
#SpecMZ 629.371
#SpecCharge 0
#internalFilename spec-00000.mgf

>collision 10
100.07515 65.920326
100.468292 21.063129
101.070168 798.782104
101.611259 6.615
101.629105 59.428761
103.0541 580.836792
103.230865 17.92161
105.07003 2075.649902
105.158882 13.67302
105.177048 16.65642
107.083839 79.562218
107.440025 5.813406
107.483589 30.361111
109.589493 46.80278
110.060265 108.576202
110.095207 86.70977
111.737221 9.745098
112.072029 25.67544
112.111443 1137.860962
112.319 4.333333
112.370621 4.7
113.071503 738.15332
113.294464 9.548245
115.052414 144.409393
116.458229 28.63344
116.644051 12.3447
117.069878 3842.694092
117.114204 19.881201
117.159386 29.33333
117.205116 13.74833
117.238297 17.006411
117.283318 14.71667
117.340904 23.8866
117.438202 12.35874
117.494926 17.96324
117.649414 13.68056
117.657013 16.710751
117.987434 12.29167
118.864059 20.48077
119.38958 28.264311
119.40477 25.880211
119.425797 9.001666
119.434914 30.82649
119.452034 37.414219
119.4711 187.225998
119.494446 116.058502
119.505928 60.061871
119.52417 45.525002
119.536903 41.38868
119.544342 49.114929
119.559212 35.747471
119.570251 75.427422
119.58683 62.39798
119.601669 21.77932
119.614098 61.668819
119.624275 40.88805
119.647736 82.696259
119.68409 14.52365
119.694138 20.129629
119.710533 42.741051
119.722527 4.335145
119.734016 17.782101
119.773323 18.16412
119.844421 21.33621
119.887253 26.835649
119.93026 20.280041
119.961288 15.81667
120.034164 27.92573
120.080994 105430.101562
120.210762 56.791149
120.234848 44.812019
120.257721 28.35714
120.301285 82.030693
120.322021 17.11846
120.362892 19.00082
120.405205 94.428078
120.422729 52.013962
120.429947 34.2467
120.448723 94.462158
120.482933 23.375
120.511551 62.950329
120.521339 74.922997
120.540939 19.82399
120.561676 83.708282
120.56897 47.58242
120.590309 68.946823
120.615128 83.635193
120.651024 96.626717
120.660767 59.02338
120.668396 12.00915
120.681938 100.521301
120.712814 63.3162
120.736832 16.73628
120.750114 62.339069
120.771599 8.334459
120.781647 21.294121
120.809967 31.462219
120.829491 14.75
120.844254 14.83627
120.884674 47.582081
120.939056 24.913651
121.128998 18.0704
121.319458 15.45679
121.361122 22.671801
121.433716 26.71875
121.49234 16.963051
121.730331 15.33415
121.771576 14.41182
121.829094 9.740741
121.839027 27.966209
121.921272 10.04412
122.290344 15.15123
122.3134 14.73035
122.324944 14.82036
122.467476 5.337121
122.777466 26.645
123.079079 159.186493
123.458054 8.786765
123.567108 22.26667
124.597824 8.765873
126.723618 21.055349
127.054901 93.867363
127.080528 39.629761
128.286621 8.68254
128.802841 26.460939
128.989166 13.16667
129.069687 1524.145996
129.427109 11.44079
129.508759 14.76961
130.45874 19.35648
130.833069 19.12002
131.085358 6124.119141
131.135345 24.007311
131.203476 69.084824
131.269424 8.735
131.41037 6.667857
131.510101 12.00113
131.668671 11.90675
131.88559 23.285709
132.133331 16.357559
132.217178 5.76923
132.330948 10.00595
132.581451 15.66667
133.066193 300.087891
133.811035 22.000561
134.094971 340.697998
134.304352 15.95833
134.474854 11.5328
135.080429 4378.207031
135.123199 24.533331
135.133102 14.91241
135.26239 16.3631
135.286331 12.77778
135.327515 27.03553
135.352844 5.747549
135.404266 39.862671
135.586411 8.669444
136.382309 4.733333
136.827866 20.156481
136.849503 12.92014
136.975998 16.46944
138.088806 218.054001
141.068527 194.633408
143.084167 84.404968
143.188782 14.9945
144.079544 208.385803
144.314377 6.494048
144.439957 12.00333
145.100632 395.269806
145.289963 26.40497
145.440948 9.778704
145.512283 8.42455
146.095428 716.409973
146.146652 11.875
146.206436 23.201389
146.336212 17.294121
147.083572 78.441429
147.347717 11.02885
148.112411 278.87149
149.075745 16.40238
150.711227 23.002029
151.335419 14.64844
152.043076 45.069649
152.107147 48.02541
152.248154 13.43841
152.827835 14.77554
152.935944 16.48576
153.557724 129.873795
153.875992 9.259408
154.121231 26.672621
154.160522 19.81336
154.174026 26.747549
154.196701 55.985001
154.207901 79.491951
154.216888 46.83812
154.227203 22.299999
154.254456 142.887299
154.272507 151.670197
154.282288 60.851849
154.304657 42.38755
154.317841 97.005348
154.3302 173.791199
154.347427 20.408331
154.357483 186.810303
154.371826 24.23077
154.386749 50.513279
154.397598 34.09375
154.413544 219.905594
154.429214 73.62574
154.444901 66.691277
154.460068 41.045151
154.466248 40.391201
154.502182 67.753113
154.529892 44.491539
154.537918 10.94697
154.576797 102.765701
154.596039 54.974998
154.604492 36.935799
154.620178 37.60083
154.637558 56.378948
154.659836 35.48452
154.669846 79.980347
154.69841 26.72727
154.725586 36.606041
154.734726 27.775539
154.757843 21.587299
154.785309 61.124649
154.806015 37.408161
154.840363 24.81349
154.868149 39.11887
154.88266 33.35627
154.923874 60.346561
154.971954 65.353661
154.982254 18.82029
155.037598 23.26759
155.050095 46.195629
155.059052 4.259615
155.085846 1109.264038
155.118149 289157.09375
155.4953 133.392807
155.515594 49.250031
155.527115 149.914001
155.549484 35.563141
155.565857 165.410904
155.602234 126.139
155.607834 114.021599
155.637589 146.053802
155.659531 76.547394
155.671616 71.007637
155.681244 30.23077
155.693069 10.46959
155.705063 36.098049
155.717255 106.2705
155.74585 166.984406
155.761841 160.674698
155.784241 112.203796
155.797943 41.93166
155.80629 117.757698
155.832169 217.111099
155.848297 52.77475
155.872177 18.333229
155.890396 60.84182
155.904129 60.203678
155.914551 13.34722
155.923325 27.3382
155.936264 13.3555
155.957016 93.301247
155.979294 70.672623
156.005478 136.938004
156.04393 50.13673
156.177383 47.27837
156.195236 13.24008
156.205185 17.009979
156.227875 61.672798
156.267593 18.52775
156.338959 15.30029
156.35173 36.778751
156.379898 18.086809
156.414337 37.681339
156.422638 25.91667
156.4319 7.023809
156.468048 48.496719
156.553299 26.8293
156.689011 25.515471
156.702911 26.88949
156.724487 33.728851
156.917908 28.721901
157.030975 11.85417
157.041046 61.130249
157.07399 26.76576
157.100159 25.490391
157.135864 20.48761
157.274948 13.10833
157.436432 5.684524
157.586411 18.51894
157.627441 19.36915
157.696274 15.00287
157.78804 16.000851
157.843246 29.9697
157.862335 11.09058
158.01973 14.48571
158.074493 21.25
158.095322 1570.631958
158.175766 9.963235
158.185974 19.226851
158.229675 20.054819
158.325989 13.34483
158.519409 14.85333
158.549316 13.66748
158.971619 7.987319
159.01619 11.04167
159.167572 15.39646
159.371964 15.59259
160.077499 20.66865
160.11174 188.932007
160.323975 11.64031
160.452148 23.13225
160.490204 22.688601
161.082916 118.384804
162.090851 282.940491
162.247284 14.37769
162.285721 11.69444
162.480377 15.65337
162.955734 15.39394
163.074295 748.31488
163.096359 166.575897
163.246658 24.94286
163.275543 13.3467
164.027771 12.26667
166.227081 13.77381
167.08522 522.556213
167.828339 16.53178
169.099075 24.557871
170.095886 96.90683
171.081268 29.680559
171.101913 165.968094
171.359131 15.41667
172.075806 66.365501
172.112427 1554.594971
172.204941 11.33654
172.24147 8.67803
172.26297 17.6
172.282501 18.08003
172.529327 15.08013
173.032227 12.7787
173.083359 126.777802
173.265701 11.49038
174.087982 58.968941
174.104919 23.53175
174.125626 152.053101
174.15062 6.748333
175.204117 22.40238
175.263367 9.586712
179.680008 14.00915
180.101608 6102.120117
180.160126 22.54701
180.183334 52.45076
180.235092 20.66667
180.285355 32.61174
180.298386 37.334
180.323914 6.466667
180.394196 12.72
180.411728 24.877781
180.42691 17.681761
180.463699 25.705179
180.498566 15.375
180.62323 4.675926
180.834076 12.54672
181.05365 14.08046
181.817947 15.38866
181.975021 23.80254
182.006256 120.494003
182.030518 71.376213
182.048752 40.477509
182.063843 26.158899
182.089935 42.086021
182.120804 21.34849
182.132477 36.35099
182.141876 63.096939
182.154343 22.259609
182.196564 88.174294
182.224808 35.37418
182.247681 22.89352
182.313507 18.728029
182.337708 101.923302
182.370193 74.38121
182.391251 14.19167
182.418823 30.455641
182.460556 28.005951
182.550339 21.5874
182.607834 20.81609
182.624329 27.26305
182.736893 18.57353
182.81163 11.29657
182.823944 19.42391
182.936111 21.530741
183.015884 5.736111
183.047943 23.753469
183.07753 167.172607
183.112869 68264.992188
183.212402 44.000351
183.250916 50.668201
183.267838 26.52
183.314926 68.957802
183.352097 70.360573
183.38736 19.871149
183.4189 82.980492
183.44397 51.9832
183.46553 29.85359
183.495911 132.389206
183.510544 40.735931
183.522324 25.98793
183.543243 63.040741
183.599197 49.814362
183.616486 74.564758
183.644058 49.73542
183.664185 15.18534
183.676453 38.198738
183.705063 87.890633
183.726547 18.293501
183.750275 60.529449
183.760254 41.592651
183.784714 28.696409
183.806564 124.141502
183.827286 19.48156
183.896317 106.150597
183.930252 53.89164
183.94873 43.591942
183.982422 32.867271
184.37352 4.041667
184.455338 38.662571
184.534363 19.801279
184.647949 7.714285
184.821884 35.62075
184.841766 12.3869
185.10643 15.72387
185.388916 12.375
185.490021 15.66975
186.09082 187.522095
186.180054 4.333333
186.301117 6.667793
186.480087 22.5376
186.534805 12.52134
188.102158 16.69338
188.979675 17.30864
189.112701 378.61261
189.305862 20.592859
190.119919 210.164597
190.824982 7.017544
191.082581 53.721851
192.028366 15.36594
192.101364 117.6959
195.35582 13.60417
199.122452 361.107391
200.107574 179.964996
205.100616 125.976303
205.195358 11.8125
207.11702 45.700859
216.132828 38.37743
217.130722 49.65657
218.118622 97.745453
220.11116 40.268822
225.122253 63.01498
231.114929 35.852459
231.974716 4.007576
232.126404 23.92308
233.081894 21.755501
233.13237 1766.765991
233.189682 8.108871
233.243668 14.52
233.332504 24.46237
233.418167 14.66755
233.960617 14.15686
235.026138 14.33333
246.894897 17.33333
247.454163 14.24242
248.141205 195.360001
248.30722 14.38272
248.723434 33.096458
248.773407 21.0
248.859055 18.300289
248.894562 15.98975
249.150085 84.163918
249.17128 17.047621
250.158768 11786.360352
250.225845 73.476669
250.255707 27.111879
250.318161 30.6486
250.336868 23.941669
250.390137 12.59414
250.405289 24.43539
250.449707 14.0049
250.472366 21.69792
250.507889 49.838009
250.563782 50.261139
250.579681 17.64159
250.604797 24.40741
250.643051 12.5376
250.684555 18.148331
250.754898 23.203329
250.783554 25.724649
250.796753 13.94444
250.843689 23.760099
250.974426 22.26786
251.106369 26.040819
251.136597 70.272369
251.287323 19.66667
251.960571 11.33333
252.429733 26.394609
253.115906 11.62703
253.282089 15.75758
254.153915 114.389198
255.516098 14.19022
258.860992 12.44444
260.497101 11.72387
260.651733 17.506941
262.159027 1208.021973
262.26358 43.241131
262.365234 12.37306
262.399353 28.200491
263.13147 13.68333
264.135529 17.18939
264.432129 26.343849
267.182739 92.966789
267.489319 18.29167
268.166626 242.196503
269.016022 12.00798
272.146759 44.676048
273.146606 27.52355
276.142944 68.66449
279.250549 23.035709
280.169464 171.982605
280.496674 15.16333
280.580811 14.75556
281.56546 16.74667
282.051483 34.308151
282.146942 727.746826
282.18454 175.285004
282.296082 12.81818
282.552856 28.26053
282.621368 13.42157
283.111176 18.351191
284.162262 21.95085
286.364288 17.23188
289.174103 151.511307
290.133423 26.0056
290.151215 53.333691
290.171265 338.905914
290.993256 21.00309
291.161621 263.173004
291.646881 10.38294
291.890045 23.787729
292.443756 28.046511
292.604828 15.77472
293.061981 4.340278
294.148132 219.336807
294.178436 26.39706
294.493073 6.435897
294.562256 32.791012
294.605255 4.259615
296.166626 148.4375
301.865295 15.04167
305.320709 19.710939
308.165558 184.413406
308.188538 121.5373
308.267365 44.670231
308.29895 10.10526
308.324585 24.67864
308.356323 10.38075
308.378418 6.916667
308.402527 6.337963
308.445312 7.673611
308.475891 11.36232
308.573608 5.7
308.990387 11.69444
309.044342 17.03141
309.188782 95.029877
309.515442 18.73926
310.07901 14.44676
310.104797 112.502502
310.148346 45.069672
310.179962 14087.700195
310.253296 85.931953
310.27063 66.456146
310.299347 14.48702
310.326202 4.6875
310.343597 70.722061
310.406281 70.229317
310.432953 31.791559
310.462585 79.998322
310.526123 39.26738
310.565948 71.21859
310.633698 49.302521
310.678772 29.470341
310.722076 33.010101
310.78418 22.01652
310.81662 33.152431
310.866211 68.199402
311.139923 61.76313
311.388336 13.00833
311.778046 25.48485
311.924042 36.623119
312.060272 12.40374
312.160583 575.015686
312.645569 15.71212
312.853912 6.006945
313.05127 6.306159
313.39563 12.06944
313.50235 17.361111
313.716492 8.787879
323.797272 21.00054
337.187531 27.534639
341.028107 4.366667
382.501862 4.226852
383.288513 14.6768
384.136658 59.36689
384.231934 4070.74292
384.317566 11.67308
384.378204 30.52652
384.410278 31.828609
384.461182 15.17014
384.569916 28.846189
384.651764 21.0
384.699524 4.333333
384.730774 18.066669
384.932098 24.844999
384.956726 40.37812
385.580444 24.5434
385.690094 15.00298
385.782196 9.721154
391.2276 32.118591
409.760529 28.367519
410.21759 15.16071
410.60849 30.0947
411.242096 137.2314
411.488647 16.430111
412.183411 41.989979
412.22702 1870.011963
413.138458 32.04784
413.438721 14.72464
413.47403 16.360559
426.571899 19.021429
426.668427 16.285721
426.76001 13.93939
426.864746 10.23077
427.233734 37.77121
427.318481 18.667681
428.724121 6.083333
429.206879 54.34264
429.253052 7881.748047
429.333771 29.25379
429.356171 11.6768
429.384094 19.000759
429.406647 8.338542
429.451965 53.68325
429.512024 23.33532
429.536407 21.37674
429.593933 33.397251
429.626892 28.05793
429.717957 50.027699
429.793915 40.959869
429.897003 21.0625
429.966919 21.67374
430.007629 47.204899
430.070343 11.25338
430.103394 50.377701
430.174469 107.688698
430.431274 20.540609
430.65036 24.38648
431.131042 9.560484
431.19754 11.03716
432.701141 14.31294
432.93927 19.34314
444.400177 7.843137
446.50766 15.16462
447.263824 402.31131
447.995331 15.57445
451.689484 49.982361
545.323853 39.014149
690.729309 11.36667
1109.346191 30.482759
1232.31897 38.573502
1498.05188 4.386905
1584.81604 16.09399
