>compound Reserpine
>formula C33H40N2O9 
>ionization [M+H]+
>parentmass 609.280884
#inchi InChI=1S/C33H40N2O9/c1-38-19-7-8-20-21-9-10-35-16-18-13-27(44-32(36)17-11-25(39-2)30(41-4)26(12-17)40-3)31(42-5)28(33(37)43-6)22(18)15-24(35)29(21)34-23(20)14-19/h7-8,11-12,14,18,22,24,27-28,31,34H,9-10,13,15-16H2,1-6H3/t18-,22+,24-,27-,28+,31+/m1/s1
#inchikey QEVHRUUCFGRFIF
#Ion_Source LC-ESI
#Instrument qTof
#Compound_Source Isolated
#PI Sirenas
#Data_Collector Ed Esquenazi 
#Scan -1
#Precursor_MZ 609.282
#ExactMass 0.0
#Charge 1
#CAS_Number N/A
#Pubmed_ID N/A
#Smiles N/A
#INCHI_AUX N/A
#Library_Class 3
#SpectrumID CCMSLIB00000006372
#IonMode Positive
#UpdateWorkflowName UPDATE-SINGLE-ANNOTATED-BRONZE
#LibraryQualityString Bronze
#TaskID d19310cd93df49b68e9fcbec27720eb5
##Scan# 2
#SpectrumFile Reserpine.mgf
#LibraryName fda_library.mgf
#MQScore -1
#Organism fda_library
#TIC_Query 0
#RT_Query -1
#MZErrorPPM -1
#SharedPeaks 0
#MassDiff 0
#LibMZ -1
#SpecMZ 609.282
#SpecCharge 0
#internalFilename spec-00000.mgf

>collision 10
102.055008 46.484428
120.078514 53.353531
123.08284 72.719841
131.074051 34.096008
148.074936 44.189301
149.090393 20.195351
160.075211 40.350769
162.095825 36.211239
167.071396 31.65801
174.09137 616.859802
188.101318 69.502167
189.101028 100.5205
192.099136 30.398239
193.997269 22.213329
194.08757 22.587299
195.047729 36.452141
195.065125 1791.05896
201.103271 22.489719
215.117126 56.09697
224.126831 56.449131
236.125366 123.180397
261.112366 21.33333
287.142639 48.519409
288.138245 29.06039
289.151245 28.63344
292.107635 23.72331
301.103058 50.45343
316.128632 44.909519
322.134735 44.065861
336.155365 110.938797
348.161987 40.209179
365.185516 190.369095
366.109344 30.33523
366.168701 27.006941
368.180084 98.019836
380.182678 25.394699
394.639374 27.62841
394.715149 27.6696
394.957062 25.255699
397.211884 2399.469971
397.319702 30.124029
398.437927 20.961241
398.500183 21.710131
433.713715 20.891199
434.180542 32.689381
436.194946 157.153305
448.193878 530.431824
448.345337 45.566872
577.248901 300.931702
580.255371 26.22274
591.270752 33.79147
592.24054 33.643021
605.281555 34.827438
605.324768 28.002831
605.384583 65.172363
605.469299 97.176918
605.534851 27.467501
605.605347 39.697979
605.66333 61.220909
605.769165 67.768639
605.846436 41.10833
606.06189 31.03134
606.934143 58.40464
608.035217 20.944441
608.701904 32.47934
609.173645 153.2323
609.228149 54.933109
609.280884 19558.720703
609.397095 59.734852
609.485107 280.704315
609.574585 273.071686
609.599121 110.260597
609.645508 100.5606
609.698914 247.157196
609.759033 164.150299
609.815674 64.14473
609.876648 172.241806
609.938477 98.264603
610.120911 66.694473
610.35321 32.061871
610.4021 165.069504
610.469727 57.831558
610.664368 83.605957
611.031555 39.12524
612.700745 42.544449
