>compound DorzolamideHCl
>formula C10H16N2O4S3 
>ionization [M+H]+
>parentmass 325.034973
#inchi InChI=1S/C10H16N2O4S3/c1-3-12-8-4-6(2)18(13,14)10-7(8)5-9(17-10)19(11,15)16/h5-6,8,12H,3-4H2,1-2H3,(H2,11,15,16)/t6-,8-/m0/s1
#inchikey IAVUPMFITXYVAF
#Ion_Source LC-ESI
#Instrument qTof
#Compound_Source Isolated
#PI Sirenas
#Data_Collector Ed Esquenazi 
#Scan -1
#Precursor_MZ 325.035
#ExactMass 0.0
#Charge 1
#CAS_Number N/A
#Pubmed_ID N/A
#Smiles N/A
#INCHI_AUX N/A
#Library_Class 3
#SpectrumID CCMSLIB00000004221
#IonMode Positive
#UpdateWorkflowName UPDATE-SINGLE-ANNOTATED-BRONZE
#LibraryQualityString Bronze
#TaskID d19310cd93df49b68e9fcbec27720eb5
##Scan# 1
#SpectrumFile DorzolamideHCl.mgf
#LibraryName fda_library.mgf
#MQScore -1
#Organism fda_library
#TIC_Query 0
#RT_Query -1
#MZErrorPPM -1
#SharedPeaks 0
#MassDiff 0
#LibMZ -1
#SpecMZ 325.035
#SpecCharge 0
#internalFilename spec-00000.mgf

>collision 10
109.043495 8.5
119.074074 33.23214
122.019218 79.82048
123.023148 74.413239
133.008255 67.095589
134.018982 92.936378
134.273315 14.10771
134.353149 10.0625
134.579865 7.002976
135.025742 3454.000977
135.075821 15.89803
135.109634 17.5016
135.133392 13.64286
135.157623 36.755909
135.178421 13.0125
135.215302 38.279072
135.230408 22.0
135.273819 19.33333
135.421829 11.8125
135.437363 7.444853
135.488586 19.16827
135.505341 9.180147
136.073242 16.36058
136.138596 31.57579
136.241226 9.388889
136.442734 13.38007
136.52829 5.1875
136.593506 14.7875
136.763947 7.2
137.925903 11.5194
138.830307 10.26078
139.02298 119.759697
139.401382 6.4375
144.989899 56.38895
150.288849 10.0744
150.397751 24.39674
150.442398 15.15434
151.021423 1636.005981
151.074982 8.285714
151.117401 20.3125
151.172882 17.502501
151.186569 27.00893
151.275223 29.04735
152.051437 257.046814
152.23317 22.71076
152.943909 135.8172
152.970444 6.043269
152.980423 41.34444
153.033752 40.96983
153.990021 156.272903
154.962143 40.669449
154.983139 97.640907
155.115692 12.18015
155.515259 3.0625
155.96698 80.578217
156.107056 8.680555
170.951538 36.548908
172.971069 26.008329
196.406311 21.76959
197.735535 13.72321
197.827667 26.728571
197.846344 50.070801
197.907761 20.112499
197.984146 36.715431
198.004425 113.1101
198.022385 80.70295
198.082169 31.6712
198.145828 8.502717
198.263367 14.00625
198.455093 36.63636
198.763351 11.15385
198.861435 5.104167
198.95108 82.619537
198.988052 12321.209961
199.050049 161.922195
199.067535 18.02841
199.086823 73.600166
199.122116 159.5439
199.147324 26.78072
199.173019 21.368059
199.208267 67.251053
199.259903 40.889488
199.278656 7.2
199.324051 52.61161
199.364426 43.352131
199.41127 19.117729
199.435837 5.503676
199.45813 69.837051
199.480118 32.512199
199.501801 11.64286
199.51445 6.004167
199.602905 16.08
199.799179 27.91032
199.883179 13.38007
200.068298 14.84698
200.424484 42.077591
200.626541 8.5625
201.731796 17.53125
202.930481 246.390793
209.962051 13.00893
211.032089 14.55357
213.882645 2.666667
213.914581 13.5125
214.610367 15.24493
214.665848 25.207109
214.713837 6.9
214.767899 43.852089
214.785614 62.636551
214.836151 28.632811
214.854568 17.625
214.886826 31.896879
214.915909 15.00133
214.957611 19.66667
215.006302 917.21698
215.078796 18.003679
215.104935 22.42215
215.145828 15.24493
215.232224 51.524731
215.416 10.74395
215.652313 20.334721
215.980927 39.375
216.014084 14964.69043
216.080261 11.0625
216.106705 29.08036
216.141525 11.5744
216.185974 70.32338
216.20816 13.08277
216.260864 57.004429
216.283875 26.56093
216.331451 29.130211
216.36882 82.432892
216.418274 10.8288
216.436356 30.63636
216.474579 47.064751
216.494873 46.65731
216.521927 27.64315
216.555908 30.66383
216.59848 62.825951
216.637039 59.128189
216.722412 35.756359
216.801666 19.67033
216.96077 15.52381
217.020477 114.132103
217.468307 31.82436
217.640442 42.520828
218.081024 21.03064
218.264282 31.0
218.948746 210.871902
219.102921 5.704167
219.339783 14.70455
219.915543 10.74013
219.949692 104.0
220.296738 23.69556
220.851791 20.0928
224.814316 9.001785
230.957458 24.016069
233.969803 217.474396
234.019318 13.50202
234.103363 4.083333
234.498535 12.57122
234.530502 12.52083
234.556976 6.006945
234.589951 5.333333
234.669357 14.69444
234.743774 16.640989
234.957291 27.503469
235.342224 7.004167
235.909424 99.761902
235.950348 2690.197021
235.992279 6.525
236.013916 23.52
236.02919 3.506944
236.050156 32.727821
236.094116 10.0
236.171036 7.840278
236.281097 25.16667
236.298676 23.334721
236.357391 21.38942
236.426407 13.66118
236.500534 24.04195
236.532639 9.007813
236.579529 10.72727
236.687836 20.025
236.863068 19.789471
237.668655 11.57143
237.828247 20.882811
244.0495 10.66118
246.927856 6.5
247.928299 83.025421
249.9272 7.5
259.056488 172.883408
259.177338 14.3
261.970917 62.274349
263.19931 15.59879
276.070282 11.34073
277.598846 32.485291
278.054962 9.529411
278.229248 28.777889
278.258514 38.094681
278.374115 10.74395
278.3974 29.36058
278.472778 20.027411
278.526398 10.78533
278.565674 19.59926
278.861877 9.002976
279.292358 25.0
279.51001 6.0625
279.976562 8970.658203
280.031677 12.48491
280.071259 28.508329
280.095184 34.50079
280.125366 76.638077
280.174866 29.000959
280.20578 55.389709
280.234589 33.51376
280.278625 99.990997
280.308044 98.582977
280.343781 38.57122
280.362762 31.49572
280.391846 20.001789
280.430603 45.873119
280.486176 35.629169
280.509399 18.484909
280.554382 8.525
280.648224 8.520833
280.751892 4.5625
280.828491 17.223221
280.911011 12.84028
281.033234 20.75762
282.06839 6.78125
282.337524 11.5125
282.39566 24.08333
283.37027 31.107759
316.339783 8.204166
320.120178 10.28409
321.189789 22.3025
322.445435 7.266448
322.778107 21.45274
322.839417 29.658791
322.86441 24.648769
322.908173 12.22917
322.941101 24.796049
322.975464 282.559509
323.00528 19.346149
323.021149 69.746178
323.03949 16.19565
323.06488 16.222219
323.14859 67.280731
323.199707 108.475899
323.219666 58.839611
323.258148 50.662079
323.296722 106.762802
323.313751 9.551136
323.370972 91.863663
323.389435 139.656403
323.440552 33.032139
323.496643 28.53632
323.55957 45.635422
323.623383 19.48031
323.671906 18.970591
323.926788 38.770119
324.004333 22.509609
324.040802 23.785721
324.082367 26.194441
324.166351 21.117649
324.315002 39.842991
324.347778 31.06612
324.474213 23.48818
324.594788 25.525
324.648407 7.567935
324.693237 11.68015
324.729614 8.104167
324.785767 22.0625
324.820465 48.650639
324.911072 14.1125
324.950623 77.001984
325.034973 65793.609375
325.131195 50.021679
325.261932 71.793251
325.30365 42.241852
325.361786 39.991852
325.479462 69.810303
325.494995 50.642769
325.522156 24.65789
325.575439 86.542999
325.636078 109.480202
325.653259 57.016941
325.691528 150.058807
325.733734 98.573753
325.790466 31.21574
325.815735 100.709
325.859497 124.651299
325.910858 13.36581
326.097992 13.54006
326.204803 16.04006
326.537842 12.52446
326.782074 24.25625
326.838318 18.422501
326.870819 8.860119
326.907074 8.225
327.018097 38.739288
327.121552 19.125
327.14212 26.679489
327.274139 42.527592
327.431183 7.074405
327.463837 7.502155
327.661499 7.75
327.721008 38.67202
328.294189 15.5125
328.373474 11.02083
328.726562 20.377979
329.191559 6.517857
329.399902 17.445311
329.455017 19.44643
329.802582 14.78125
330.425629 8.960227
330.567413 7.222222
330.995544 10.18056
331.073547 16.02471
331.352081 6.015625
331.643463 5.0
332.137817 6.00329
332.708649 12.25
335.213531 14.07031
337.428467 8.555921
628.192688 8.2
738.879456 11.77841
960.716553 13.33333
1173.591064 15.34028
1569.036865 19.339531
1669.518677 26.245689
