>compound Carbamazepine
>formula C15H12N2O 
>ionization [M+H]+
>parentmass 237.102
#inchi InChI=1S/C15H12N2O/c16-15(18)17-13-7-3-1-5-11(13)9-10-12-6-2-4-8-14(12)17/h1-10H,(H2,16,18)
#inchikey FFGPTBGBLSHEPO
#Ion_Source LC-ESI
#Instrument qTof
#Compound_Source Isolated
#PI Sirenas
#Data_Collector Ed Esquenazi 
#Scan -1
#Precursor_MZ 237.102
#ExactMass 0.0
#Charge 1
#CAS_Number N/A
#Pubmed_ID N/A
#Smiles N/A
#INCHI_AUX N/A
#Library_Class 3
#SpectrumID CCMSLIB00000004715
#IonMode Positive
#UpdateWorkflowName UPDATE-SINGLE-ANNOTATED-BRONZE
#LibraryQualityString Bronze
#TaskID d19310cd93df49b68e9fcbec27720eb5
##Scan# 3
#SpectrumFile Carbamazepine.mgf
#LibraryName fda_library.mgf
#MQScore -1
#Organism fda_library
#TIC_Query 0
#RT_Query -1
#MZErrorPPM -1
#SharedPeaks 0
#MassDiff 0
#LibMZ -1
#SpecMZ 237.102
#SpecCharge 0
#internalFilename spec-00000.mgf

>collision 10
101.040054 33.024281
102.044823 38.881229
115.053421 139.924805
116.049774 1094.668945
117.057495 959.560425
127.054749 48.395679
128.050568 177.842194
128.060242 92.727173
139.053513 353.909912
141.070145 170.020294
143.071671 27.412279
150.046188 128.151505
151.053894 889.833496
152.062164 2968.811035
152.115433 22.701891
163.056198 80.795357
164.061737 196.164505
165.069672 10528.19043
165.123779 115.976303
165.180618 33.714699
165.313828 44.268688
165.353287 31.22702
165.497009 32.157269
165.53215 24.594931
165.580582 35.345791
167.087967 84.53231
176.060898 580.182129
176.59053 24.78162
177.067307 779.447693
177.359055 26.601801
177.466217 28.26808
178.031357 39.601158
178.067215 1744.348999
178.189148 48.398891
178.235214 40.51318
178.281097 41.588982
178.371368 24.449631
179.072876 11509.980469
179.297104 42.85714
179.319962 31.82781
179.385239 32.055649
179.51619 23.73988
189.995132 47.74897
190.064804 1608.602051
190.126328 61.70826
190.207031 33.535839
190.287094 44.425652
190.770096 26.788059
190.953979 45.701672
191.0728 4867.314941
191.150467 30.594749
191.193115 34.671108
191.230774 32.779018
191.313461 42.412472
191.360916 65.318802
191.51683 26.198071
191.707733 44.489059
191.735275 24.423611
192.017838 46.071751
192.038147 27.783331
192.080811 10599.820312
192.270294 59.779091
192.386826 55.716869
192.458282 69.86351
192.549988 31.235649
192.649673 25.46418
192.731735 41.837151
193.044327 26.703671
193.089111 22492.910156
193.355133 34.587139
193.397995 109.055099
193.480942 74.833794
193.508545 78.711853
193.543823 49.12711
193.567184 39.80859
193.629059 26.936621
193.703156 30.292959
193.759796 32.44009
193.814392 49.03009
193.856461 27.058571
194.057968 47.975552
194.096375 15760.040039
194.293137 34.529812
194.33403 22.713539
194.377884 46.496368
194.410675 26.521049
194.430786 30.229271
194.446899 48.343651
194.55098 51.142979
194.596176 41.86964
194.629395 27.32946
194.719925 53.61702
194.859695 46.667332
194.939865 35.142071
195.192596 30.931379
202.06221 52.15081
209.10881 30.056271
218.082947 38.48708
