>compound Rifamycin W
>formula C35H45NO11 
>ionization [M+H]+
>parentmass 656.3065377120906
#inchi InChI=1S/C35H45NO11/c1-14-9-8-10-15(2)35(47)36-22-12-23(38)24-25(32(44)20(7)33(45)26(24)34(22)46)28(40)16(3)11-21(13-37)31(43)19(6)30(42)18(5)29(41)17(4)27(14)39/h8-12,14,17-19,21,27,29-31,37,39,41-45H,13H2,1-7H3,(H,36,47)/b9-8+,15-10-,16-11+/t14-,17+,18+,19-,21+,27-,29+,30-,31+/m0/s1
#inchikey PHKOJKSYBBXXED
#Ion_Source LC-ESI
#Instrument qTof
#Compound_Source Isolated
#PI Fenical-Jensen-Moore
#Data_Collector Max
#Scan -1
#Precursor_MZ 656.306
#ExactMass 655.299
#Charge 1
#CAS_Number N/A
#Pubmed_ID N/A
#Smiles N/A
#INCHI_AUX N/A
#Library_Class 1
#SpectrumID CCMSLIB00000001635
#IonMode Positive
#UpdateWorkflowName UPDATE-SINGLE-ANNOTATED-GOLD
#LibraryQualityString Gold
#TaskID d14a5843653040ba9fa2c4376f2be358
##Scan# 1
#SpectrumFile d10.mgf
#LibraryName gnps_library.mgf
#MQScore -1
#Organism gnps_library
#TIC_Query 0
#RT_Query -1
#MZErrorPPM -1
#SharedPeaks 0
#MassDiff 0
#LibMZ -1
#SpecMZ 656.306
#SpecCharge 0
#internalFilename spec-00000.mgf

>collision 10
51.022472 93.906502
53.03849 152.1483
55.017834 226.064896
55.054722 2069.459961
56.056667 98.109642
57.033981 1302.905029
57.069798 248.785995
58.037598 62.28294
59.049175 141.893707
65.038734 275.753204
67.054512 3809.833008
67.130272 74.549217
68.057655 214.683395
69.033661 1773.084961
69.069977 2046.488037
70.036819 82.573776
70.07309 151.167892
71.048912 199.145203
71.084007 95.399696
73.065453 48.326969
77.038658 1179.30603
78.043182 126.011299
79.054344 1623.651001
80.059082 147.936203
81.032158 48.991192
81.06974 2115.534912
82.072845 129.384506
83.011841 89.173363
83.049156 818.240295
83.085426 965.773315
84.052063 87.510559
84.089752 78.577179
85.064674 136.898193
85.100922 213.047394
87.042381 62.72438
91.054062 2630.916992
91.142006 49.745541
92.057785 287.366608
93.06974 4154.814941
93.159325 81.864677
94.07428 495.031403
95.048927 998.242615
95.085426 16811.400391
95.176285 398.088806
96.049355 92.250313
96.088799 1591.649048
97.02887 170.701706
97.064903 1038.897949
97.098053 247.939697
98.067848 82.035553
99.043922 83.507721
99.080269 369.577606
103.054192 288.281586
104.060539 58.036819
105.069672 3420.47998
105.166069 65.68058
106.072441 405.675201
107.049362 254.075806
107.085297 4658.299805
107.182076 84.247322
108.056297 338.654297
108.087723 609.49408
109.030907 53.676529
109.064621 6034.86377
109.0998 3661.710938
109.159889 161.714798
109.194305 93.166687
110.067459 589.656982
110.103592 404.996002
111.042587 186.095993
111.080124 5138.12793
111.178864 99.212807
112.083916 520.811584
113.058746 152.149597
113.094688 263.660614
115.055275 227.505997
116.057877 63.56493
117.069267 648.484619
118.072632 125.7957
119.049461 64.672493
119.085136 2925.64209
119.188156 57.804771
120.088974 413.833313
121.064209 2822.336914
121.10006 2733.978027
121.165382 86.755692
121.201935 57.83337
122.068893 501.556396
122.103737 456.930511
123.044426 98.388252
123.080093 9428.642578
123.112839 1945.987061
123.18251 196.450897
123.213097 74.067871
124.083687 1115.765015
125.059746 164.181107
125.09523 467.215515
126.096687 57.18819
127.069756 131.783798
127.108704 63.2052
128.061478 227.568497
129.070267 360.7005
130.077133 498.622986
131.084549 673.749207
132.087799 126.226097
133.064896 778.446411
133.100296 2360.144043
133.207993 54.202229
134.063065 184.4552
134.104034 380.895813
135.080109 2305.637939
135.114777 1297.301025
135.187561 53.335789
136.082245 418.319397
136.116577 194.1633
137.057831 190.282196
137.094849 1383.56604
138.096069 325.599792
139.075333 277.736786
139.110764 613.141418
140.113831 70.928123
141.071304 140.046906
142.077026 289.474396
143.084442 681.485779
144.091568 327.36911
145.063995 109.728104
145.100235 2743.217041
145.211578 55.868759
146.070099 162.222198
146.10379 464.142212
147.079727 655.699707
147.115952 1244.146973
148.084976 197.767303
148.117996 175.285599
149.05864 297.740112
149.09462 1089.322021
149.128235 460.19989
150.099228 179.883408
150.132294 63.888359
151.074738 8936.595703
151.189377 171.620407
151.21936 73.590073
152.078278 1230.010986
153.084473 213.199203
153.123627 102.429001
154.079483 74.559639
155.086914 345.326294
156.091949 266.934998
157.100204 755.997986
158.072754 210.560196
158.104019 301.773285
159.079498 419.455811
159.115402 1153.07605
160.085052 250.8965
160.117447 251.434494
161.095932 2224.018066
162.099472 439.623993
163.110825 2590.129883
164.114578 451.159088
165.087952 155.0634
165.124924 214.882797
166.085007 74.331863
166.128036 53.67625
167.101837 217.889694
168.096191 74.05867
169.099457 194.696304
170.107605 419.991211
171.114731 455.420898
172.038101 88.529083
172.086365 234.611603
172.118362 167.068893
173.095169 1234.379028
173.129135 908.200684
174.05484 53.66898
174.100998 372.25119
174.131393 225.398697
175.111053 1212.092041
175.145462 916.284424
176.071289 143.313004
176.113037 295.453491
176.148193 179.781601
177.089905 390.256989
177.124161 428.918915
178.092651 96.589157
178.126816 120.330498
179.105469 1104.661987
180.108185 173.786301
181.113281 119.484901
182.107559 96.092232
183.077713 64.779442
183.115326 262.423309
184.121567 90.222733
185.094513 121.819397
185.131226 522.639526
186.103348 183.176102
186.133316 158.667007
187.110184 426.885193
187.144791 288.211792
188.117706 154.6763
188.146835 109.218498
189.087448 136.484604
189.127563 384.162689
190.048752 98.625
190.12973 100.685501
191.106369 1085.074951
192.108704 220.742706
193.117447 159.270203
195.118881 210.587799
196.119568 106.670601
197.126541 155.373093
198.099396 75.105927
198.130173 57.36557
199.072891 72.205421
199.110291 169.100998
199.142929 100.680199
200.033035 112.454102
200.118057 87.257736
201.127609 346.860504
202.129913 91.791107
203.045502 70.492737
203.141785 558.044373
204.064484 93.014679
204.144775 131.508606
205.141159 112.864197
206.116501 52.462959
207.118454 60.043709
208.123657 61.5229
209.117828 218.180405
210.135788 125.786697
211.137543 149.395996
212.136353 54.442181
213.062775 74.134773
213.126587 338.045105
214.054276 55.745461
214.131622 147.8582
215.141251 209.755096
215.173401 164.094696
216.063278 92.070763
216.147491 57.699921
217.050858 111.557701
217.116852 77.382317
217.155548 143.924393
218.06987 69.697937
219.031891 104.591904
219.134964 98.762032
220.060669 240.511307
220.12468 65.418091
221.145554 61.401218
223.11113 109.998596
223.14679 60.213001
224.117004 80.918556
225.159561 175.799393
226.084656 60.339512
226.129608 61.55904
226.16217 51.148762
227.069626 205.717697
227.13913 86.325111
227.174881 62.622139
228.028534 195.581802
228.065735 152.781296
228.149658 49.422779
229.060257 112.361198
229.11647 84.015167
229.153824 89.892227
230.065689 81.166786
231.031769 771.528076
231.135605 322.278412
232.059647 1455.041016
232.138245 114.876503
233.06163 283.551392
233.1474 63.130428
233.18811 61.560291
234.065811 58.28685
235.159409 154.127701
237.121826 52.254349
238.131561 63.369961
239.067917 80.933823
240.0802 57.387989
241.075378 130.649094
241.155731 83.329109
242.07663 193.368393
243.067047 309.584015
243.174088 322.708313
244.062973 427.854889
244.176727 78.188469
245.068359 212.926193
246.039169 20470.890625
247.042587 3288.270996
247.139374 61.571301
248.047119 559.916809
249.061005 98.159821
249.14769 110.650902
250.082535 59.770859
251.075317 67.10659
252.085495 73.297997
253.077225 141.947205
253.158066 152.003098
254.081787 148.755798
255.067963 434.972992
256.066772 385.454895
257.069305 394.587402
258.075653 1187.60498
259.069519 395.166901
260.075378 129.567703
261.077881 49.528488
261.18338 92.010597
263.09549 61.801208
265.091431 54.117611
266.081757 124.484497
267.081726 110.009201
268.08728 148.642395
269.070953 531.536926
270.075897 892.860474
271.080017 566.653076
271.168457 232.419495
272.08905 967.657471
272.166504 93.708328
273.065735 650.772522
274.070404 2135.298096
275.075684 636.389587
276.084412 270.037994
277.084991 77.513763
278.089325 79.530029
279.092072 153.036407
280.09436 197.409698
281.079071 185.602707
282.080017 303.773804
283.080933 226.720398
284.090851 621.927185
285.089844 191.587402
286.082428 276.032715
287.076477 79.259644
288.085938 196.920502
289.086639 65.608414
289.178925 177.272705
290.180115 66.357849
291.098694 78.895569
292.096313 140.875198
293.096924 106.656502
294.087372 237.657104
295.083069 380.346191
296.089996 676.183228
297.085815 299.197815
298.087036 361.297607
299.095917 118.919701
300.085602 304.169891
301.09079 95.93251
302.099152 57.949268
305.091522 57.230541
306.106506 116.821198
307.094788 140.805496
308.094238 263.412292
309.097443 229.213806
310.10498 345.89679
311.098969 144.406799
312.08783 857.638184
313.090576 237.583405
314.102325 612.223389
315.105072 180.830902
316.114532 52.357658
317.104584 57.1115
318.113342 80.801132
319.108887 96.513947
320.095337 193.050797
321.098755 173.090103
322.107208 298.914001
323.086456 253.625107
324.089142 294.079315
325.104584 132.798004
326.101501 420.476715
327.10318 171.602097
328.08606 73.042099
330.107544 94.084106
331.108887 69.140869
332.111511 74.878967
333.094727 127.450401
334.106903 161.286102
335.110657 125.7686
336.115936 225.179306
337.107178 126.1138
338.114288 306.576202
339.11145 138.8461
340.113464 169.546799
341.123108 57.277401
342.099213 277.387787
343.113007 96.644371
344.12146 119.154503
345.119415 52.45322
346.110931 129.103897
347.115479 119.670303
348.106201 189.960495
349.111633 188.271103
350.109772 244.260193
351.108734 109.182297
352.116699 292.959503
353.114136 92.758087
354.130219 213.576401
355.133667 73.398972
359.122803 79.600708
360.117859 148.683502
361.130554 92.411827
362.132904 154.081696
363.132355 96.985207
364.125214 247.980499
365.130066 119.012001
366.112091 340.6185
367.117126 146.450302
368.117981 132.761002
369.11795 60.555569
370.134064 83.659019
372.132782 73.184937
373.132416 76.751953
374.127594 95.000183
375.137573 81.750053
376.141968 157.860504
377.13678 82.350594
378.13147 199.708694
379.136536 171.503601
380.142456 132.078903
382.136902 100.8013
384.139923 51.207069
386.13208 107.300903
388.150116 86.649498
390.134247 92.146332
391.1427 169.856903
392.139679 258.634613
393.139801 91.608124
394.138855 338.11261
395.140961 164.038895
396.14032 179.804001
397.142303 61.34444
400.141418 107.477898
402.156464 55.047359
404.148041 84.658882
406.159912 226.788895
407.15921 148.095703
408.152374 92.220161
409.151917 52.45982
410.15448 82.904091
411.158295 67.93959
412.175323 115.026802
416.151611 70.407333
418.149078 61.37466
422.161865 90.274406
423.164307 50.5508
424.150665 86.128937
426.156982 104.276398
432.163483 54.16695
434.166595 148.325897
435.16571 81.564987
436.170349 72.944443
440.168457 162.555099
441.178223 74.479332
446.163269 65.582733
448.173645 58.94495
450.18576 79.716217
452.200378 85.930603
458.185547 59.69175
462.164032 105.595703
464.174225 166.031494
465.175171 61.545792
466.186615 50.983089
468.197815 51.723221
474.190643 65.337914
476.188538 71.228798
478.185455 53.037331
480.19635 99.653343
482.181213 128.4077
483.186249 71.061638
484.192566 73.449158
492.194855 60.997509
498.207672 87.948593
499.212921 49.490921
520.204102 49.152538
544.230957 104.340103
545.235596 48.769211
554.255188 115.354301
555.254944 50.30114
556.265442 64.551567
562.244873 76.006721
563.25415 53.853241
566.251892 79.7285
572.264343 333.174591
573.266846 196.509506
574.275696 145.210693
584.264099 384.036499
585.267029 192.141998
586.268494 68.644119
590.275208 274.585602
591.273926 129.611099
592.28302 59.384991
602.274658 1052.504028
603.277832 620.247925
604.280396 197.627701
620.284607 846.984375
621.287476 482.504913
622.288025 126.424797
638.296326 154.490997
639.297791 113.191498
656.309082 53.11338
