>compound MLS001049024-01!
>formula C11H16N4O2
>ionization [M+H]+
>parentmass 237.136108
#inchi InChI=1S/C11H16N4O2/c1-7(2)5-15-6-12-9-8(15)10(16)14(4)11(17)13(9)3/h6-7H,5H2,1-4H3
#inchikey WHUWQSQEVISUMC
#Ion_Source LC-ESI
#Instrument qTof
#Compound_Source NIH Pharmacologically Active Library
#PI Dorrestein
#Data_Collector VP/LMS
#Scan -1
#Precursor_MZ 237.132
#ExactMass 236.127
#Charge 1
#CAS_Number N/A
#Pubmed_ID N/A
#Smiles CC(C)Cn1cnc2n(C)c(=O)n(C)c(=O)c12
#INCHI_AUX N/A
#Library_Class 1
#SpectrumID CCMSLIB00000085275
#IonMode Positive
#UpdateWorkflowName UPDATE-SINGLE-ANNOTATED-GOLD
#LibraryQualityString Gold
#TaskID d252d724072548979f1f6f1ced849daf
##Scan# 1608
#SpectrumFile p3-G09_GG9_01_18302.mzXML
#LibraryName Pharm_Active_Library.mgf
#MQScore -1
#Organism Pharm_Active_Library
#TIC_Query 0
#RT_Query -1
#MZErrorPPM -1
#SharedPeaks 0
#MassDiff 0
#LibMZ -1
#SpecMZ 237.132
#SpecCharge 0
#internalFilename spec-00000.mgf

>collision 10
45.257401 132.0
45.282848 152.0
45.68288 192.0
46.095482 156.0
46.493652 108.0
46.881268 196.0
47.091385 176.0
47.251331 184.0
47.955845 160.0
48.32597 212.0
48.375797 172.0
49.367924 156.0
49.461674 188.0
49.670475 140.0
49.857224 164.0
49.985203 132.0
50.083759 148.0
50.791981 200.0
50.932514 144.0
51.756893 184.0
52.270813 136.0
53.026157 52.0
53.187168 188.0
53.393497 116.0
53.641041 168.0
53.692078 236.0
53.807362 168.0
54.475212 132.0
54.53693 204.0
54.614864 152.0
57.290207 112.0
57.738537 160.0
57.826294 124.0
58.573387 160.0
59.139915 140.0
59.727627 184.0
59.803028 156.0
60.279606 204.0
60.570488 196.0
61.402096 164.0
61.870899 152.0
62.098125 176.0
62.358772 84.0
62.902225 172.0
63.292755 72.0
63.544956 188.0
63.617794 128.0
63.798908 180.0
63.921387 192.0
64.23687 152.0
64.3965 160.0
64.828484 68.0
65.045021 152.0
65.234581 164.0
65.266739 184.0
65.461456 220.0
65.86953 76.0
66.540024 184.0
66.730125 172.0
66.843994 68.0
67.031265 184.0
67.71582 196.0
68.139061 196.0
68.319016 204.0
68.670799 144.0
68.863914 172.0
69.202942 140.0
69.249313 144.0
69.408417 196.0
69.793671 148.0
70.893799 168.0
71.170593 80.0
71.513557 160.0
71.802406 196.0
72.024483 60.0
72.328445 144.0
72.912361 196.0
72.95826 160.0
72.995667 180.0
73.406082 148.0
73.656982 144.0
75.150665 164.0
75.446014 132.0
75.547829 240.0
75.748878 152.0
76.332062 40.0
77.405296 128.0
77.96669 232.0
78.323883 188.0
78.507187 196.0
79.577797 64.0
79.616867 168.0
79.677261 152.0
79.833687 160.0
79.913734 128.0
80.195122 180.0
80.562729 156.0
81.121094 92.0
81.683189 188.0
82.133537 176.0
82.25444 184.0
82.617691 136.0
82.753433 160.0
82.903641 204.0
83.21035 208.0
83.506569 208.0
83.763229 108.0
84.872643 172.0
85.331688 160.0
85.502769 164.0
85.688759 64.0
86.518036 156.0
87.09478 200.0
87.159805 56.0
87.721901 172.0
88.267105 216.0
88.411156 192.0
88.439232 168.0
89.413383 136.0
89.475502 160.0
89.564011 236.0
90.014786 184.0
90.158363 148.0
90.307732 148.0
90.377731 208.0
90.459114 176.0
90.589783 132.0
90.659897 228.0
90.953888 72.0
91.979927 216.0
92.461609 168.0
92.967575 184.0
93.015564 60.0
93.042442 164.0
93.565392 108.0
93.61161 88.0
93.729118 152.0
94.043938 204.0
94.089813 100.0
94.105263 72.0
94.700905 140.0
95.018837 180.0
95.090637 184.0
95.831581 80.0
95.876396 176.0
95.905632 180.0
95.927078 148.0
96.035408 320.0
96.055519 1660.0
96.127975 64.0
96.220474 52.0
96.389221 180.0
96.548012 228.0
96.737816 72.0
96.865105 188.0
97.0411 180.0
97.057175 244.0
97.116013 108.0
97.245514 44.0
97.259254 48.0
97.758484 84.0
97.884476 148.0
98.972542 212.0
99.192467 40.0
100.243912 104.0
100.383461 112.0
100.988617 200.0
101.338966 72.0
101.487289 148.0
102.007118 224.0
102.067612 164.0
102.204399 192.0
102.577003 148.0
102.88163 72.0
103.130104 164.0
103.370781 184.0
103.842842 268.0
103.992989 160.0
104.057953 60.0
104.265152 144.0
104.435951 180.0
104.769806 140.0
105.047066 228.0
105.175629 84.0
105.457512 136.0
105.887192 140.0
106.317741 144.0
106.479935 220.0
107.024918 180.0
107.125839 180.0
107.455711 100.0
108.08593 184.0
108.189423 80.0
108.286751 84.0
109.026566 656.0
109.106438 180.0
109.49765 196.0
110.050285 140.0
110.066422 232.0
110.163071 64.0
110.729736 196.0
110.914337 216.0
111.006592 140.0
111.756516 220.0
111.779663 204.0
112.914696 224.0
113.405914 84.0
114.625847 128.0
114.960663 192.0
116.306938 120.0
116.736649 208.0
117.397804 140.0
117.412895 176.0
118.108398 148.0
118.634628 168.0
119.085991 128.0
120.057259 220.0
120.078514 156.0
120.486725 180.0
121.062012 212.0
121.210983 140.0
122.034538 852.0
122.059273 332.0
122.086914 180.0
122.284927 156.0
122.692459 68.0
122.727737 108.0
122.833603 192.0
123.041054 204.0
123.206696 40.0
123.593628 132.0
124.003334 140.0
124.050179 32692.0
124.090759 64.0
124.120834 52.0
124.152863 136.0
124.171844 172.0
124.191803 176.0
124.207336 92.0
124.271675 72.0
124.298302 100.0
124.384857 48.0
124.484772 68.0
124.504761 84.0
124.584724 44.0
124.715843 88.0
124.791428 80.0
124.838127 92.0
124.882607 32.0
124.902626 180.0
125.003258 88.0
125.050232 1204.0
125.078423 164.0
125.131851 44.0
125.191978 84.0
125.321182 48.0
125.521797 52.0
125.586479 60.0
125.729271 68.0
125.875275 120.0
125.897484 84.0
125.914581 180.0
125.943726 84.0
125.988297 88.0
126.008408 140.0
126.055328 160.0
126.1045 100.0
126.126854 144.0
126.370621 40.0
126.480286 48.0
126.766975 152.0
127.009117 144.0
127.53231 172.0
128.414963 80.0
128.96138 132.0
129.058594 172.0
132.360428 240.0
133.096512 184.0
133.655106 152.0
134.016617 100.0
135.409653 48.0
135.571838 208.0
136.023209 192.0
136.684204 156.0
136.7005 72.0
136.88208 108.0
137.020157 200.0
137.08284 352.0
137.777771 60.0
138.01149 64.0
138.062943 216.0
138.990631 180.0
139.59201 124.0
140.046249 88.0
142.062378 172.0
142.556549 164.0
143.72818 56.0
146.678238 168.0
147.027985 156.0
147.450638 148.0
147.489319 152.0
148.062759 124.0
148.249313 44.0
148.406876 224.0
149.048416 176.0
149.663116 136.0
149.831192 136.0
150.041489 196.0
151.088547 132.0
151.664032 68.0
152.034393 200.0
152.198868 176.0
152.830597 180.0
154.018921 148.0
154.335266 72.0
155.85228 124.0
158.825775 140.0
159.614395 132.0
160.067352 104.0
161.999588 212.0
163.06337 176.0
163.785446 152.0
165.355774 212.0
165.780914 116.0
166.042206 144.0
167.05191 84.0
167.857758 132.0
168.27095 184.0
169.155136 164.0
170.584534 172.0
171.957275 128.0
172.200104 232.0
172.989807 60.0
173.762939 164.0
175.373993 52.0
175.56485 220.0
176.782745 72.0
178.020798 168.0
179.764511 156.0
180.0849 212.0
180.124969 244.0
180.25589 240.0
180.277267 164.0
180.600784 148.0
180.742569 60.0
180.812149 108.0
180.871033 148.0
180.924576 28.0
180.954956 116.0
180.980804 116.0
181.018295 168.0
181.071701 28208.0
181.171967 148.0
181.202377 100.0
181.237961 48.0
181.318344 96.0
181.486572 80.0
181.573059 104.0
181.624023 80.0
181.677673 76.0
181.707184 44.0
181.725967 40.0
181.857468 84.0
181.916519 136.0
182.072632 2008.0
182.104492 56.0
182.220001 60.0
182.239487 84.0
182.490509 112.0
182.5103 116.0
182.533157 96.0
182.623245 44.0
182.709335 64.0
182.865417 160.0
182.935394 64.0
183.073441 304.0
183.158905 52.0
183.43869 136.0
183.490387 100.0
183.511703 124.0
183.565887 88.0
184.197464 52.0
184.23259 112.0
184.770599 72.0
184.949219 124.0
187.442459 144.0
190.743286 60.0
191.450409 40.0
192.062302 68.0
192.200241 76.0
194.085663 220.0
203.964523 184.0
219.025696 116.0
222.105865 128.0
237.136108 172.0
237.424316 36.0
244.944763 80.0
256.086823 188.0
258.030273 160.0
272.260345 40.0
294.220764 32.0
297.510864 72.0
342.782867 88.0
343.295288 32.0
350.90448 160.0
362.92572 104.0
366.209259 52.0
435.982025 140.0
444.837219 96.0
468.122345 68.0
571.857788 84.0
590.276428 68.0
656.349609 20.0
714.251587 104.0
828.052246 152.0
853.526672 224.0
873.906372 192.0
876.80957 132.0
943.756531 128.0
972.298279 172.0
977.269714 148.0
1018.723633 204.0
1049.497192 192.0
1053.905884 204.0
1061.875122 212.0
1084.63855 192.0
1085.005615 240.0
1086.04834 140.0
1114.862305 272.0
1117.229492 108.0
1134.104736 184.0
1136.8479 172.0
1150.944336 172.0
1159.29895 132.0
1164.847412 76.0
1169.214478 248.0
1192.58606 136.0
1203.989136 136.0
1204.812744 156.0
1212.471191 168.0
1221.115356 128.0
1222.179688 152.0
1225.124878 228.0
1229.148071 152.0
1230.593018 176.0
1249.334473 160.0
1268.848633 176.0
1278.317139 168.0
1281.143921 240.0
1283.62439 132.0
1283.77417 52.0
1284.858398 188.0
1286.706909 124.0
1287.835205 56.0
1296.385132 180.0
1301.571655 172.0
1306.502441 188.0
1307.538696 208.0
1308.834473 108.0
1310.246216 140.0
1318.847046 188.0
1321.307129 184.0
1322.35083 168.0
1323.521973 152.0
1326.586792 160.0
1331.927856 140.0
1335.765991 196.0
1340.74646 228.0
1340.812134 236.0
1343.670654 120.0
1345.539062 164.0
1348.395386 200.0
1349.455322 192.0
1353.304077 156.0
1362.068237 128.0
1368.599121 144.0
1369.497559 88.0
1369.630249 48.0
1369.821777 72.0
1370.013306 52.0
1372.452881 76.0
1377.538208 68.0
1380.886719 216.0
1383.254517 200.0
1383.313843 152.0
1383.461914 160.0
1394.507324 184.0
1395.206177 144.0
1400.355713 172.0
1406.335693 204.0
1407.313599 152.0
1408.075317 144.0
1429.6604 184.0
1429.991577 168.0
1435.408447 204.0
1435.891113 124.0
1444.517334 104.0
1450.893921 88.0
1451.318604 212.0
1453.139038 228.0
1453.897827 156.0
1456.403442 136.0
1456.775635 52.0
1457.930664 152.0
1458.812378 208.0
1462.950928 200.0
1465.129028 144.0
1467.186768 104.0
1467.346924 148.0
1470.489868 248.0
1471.352539 128.0
1473.09375 144.0
1475.845215 164.0
1477.099487 120.0
1481.302246 204.0
1483.58374 228.0
1487.475464 216.0
1490.178833 140.0
1490.862793 136.0
1491.423828 164.0
1494.946411 244.0
1498.74292 192.0
1498.85083 120.0
1499.421021 156.0
1500.430908 228.0
1502.235596 204.0
