>compound MLS001074862-01!1-Benzyl-2-pyrrolidinone
>formula C11H13NO
>ionization [M+H]+
>parentmass 176.108
#inchi InChI=1S/C11H13NO/c13-11-7-4-8-12(11)9-10-5-2-1-3-6-10/h1-3,5-6H,4,7-9H2
#inchikey LVUQCTGSDJLWCE
#Ion_Source LC-ESI
#Instrument qTof
#Compound_Source NIH Pharmacologically Active Library
#PI Dorrestein
#Data_Collector VP/LMS
#Scan -1
#Precursor_MZ 176.108
#ExactMass 175.1
#Charge 1
#CAS_Number N/A
#Pubmed_ID N/A
#Smiles O=C1CCCN1Cc2ccccc2
#INCHI_AUX N/A
#Library_Class 1
#SpectrumID CCMSLIB00000085098
#IonMode Positive
#UpdateWorkflowName UPDATE-SINGLE-ANNOTATED-GOLD
#LibraryQualityString Gold
#TaskID d252d724072548979f1f6f1ced849daf
##Scan# 1631
#SpectrumFile p3-E10_GE10_01_18279.mzXML
#LibraryName Pharm_Active_Library.mgf
#MQScore -1
#Organism Pharm_Active_Library
#TIC_Query 0
#RT_Query -1
#MZErrorPPM -1
#SharedPeaks 0
#MassDiff 0
#LibMZ -1
#SpecMZ 176.108
#SpecCharge 0
#internalFilename spec-00000.mgf

>collision 10
47.629673 52.0
47.932365 148.0
50.644463 220.0
51.510777 88.0
53.32357 152.0
55.876644 212.0
57.493572 144.0
59.242283 196.0
59.942936 200.0
60.992313 124.0
61.051399 176.0
61.495441 204.0
62.382065 204.0
62.452827 52.0
79.97364 192.0
86.487694 116.0
90.046097 160.0
91.053574 3660.0
91.517723 44.0
91.883675 120.0
92.056267 856.0
92.095573 216.0
92.44928 104.0
93.058868 92.0
98.058594 372.0
99.751297 128.0
105.732529 164.0
118.039993 116.0
125.526978 236.0
127.050201 52.0
132.525986 208.0
134.938171 156.0
157.989365 100.0
174.972 188.0
176.104065 256.0
177.084595 44.0
177.104065 124.0
305.513 72.0
688.105957 148.0
709.875122 196.0
764.027954 104.0
845.686646 164.0
884.645325 148.0
896.274597 164.0
909.912048 196.0
933.052307 128.0
936.514893 168.0
937.788391 176.0
951.061584 128.0
981.526062 216.0
999.994995 164.0
1009.26239 128.0
1020.078613 132.0
1043.98584 172.0
1050.381714 124.0
1054.565918 180.0
1079.257446 128.0
1083.839355 208.0
1084.6521 92.0
1095.817871 216.0
1097.663452 148.0
1104.294189 60.0
1119.126343 172.0
1133.843018 72.0
1138.04248 136.0
1139.701538 100.0
1162.818115 52.0
1186.290161 188.0
1209.283813 192.0
1210.370728 192.0
1210.509155 164.0
1210.848511 168.0
1216.95105 148.0
1221.837158 260.0
1263.053345 56.0
1263.987183 164.0
1270.619263 196.0
1305.981567 52.0
1316.280396 84.0
1317.118164 220.0
1365.835327 156.0
1367.063965 228.0
1377.319824 128.0
1378.731079 52.0
1388.370239 184.0
1405.256348 184.0
1417.489624 204.0
1421.073853 144.0
1423.918945 224.0
1451.191895 212.0
1454.074585 180.0
1462.283081 184.0
1464.925415 160.0
1467.562378 188.0
1473.714478 124.0
1475.495361 52.0
1477.453247 148.0
1479.665161 44.0
1482.17749 192.0
