>compound Idarubicin
>formula C26H27NO9 
>ionization [M+H]+
>parentmass 498.177
#inchi InChI=1S/C26H27NO9/c1-10-21(29)15(27)7-17(35-10)36-16-9-26(34,11(2)28)8-14-18(16)25(33)20-19(24(14)32)22(30)12-5-3-4-6-13(12)23(20)31/h3-6,10,15-17,21,29,32-34H,7-9,27H2,1-2H3/t10-,15-,16-,17-,21+,26-/m0/s1
#inchikey XDXDZDZNSLXDNA
#Ion_Source LC-ESI
#Instrument qTof
#Compound_Source Isolated
#PI Sirenas
#Data_Collector Ed Esquenazi 
#Scan -1
#Precursor_MZ 498.177
#ExactMass 0.0
#Charge 1
#CAS_Number N/A
#Pubmed_ID N/A
#Smiles N/A
#INCHI_AUX N/A
#Library_Class 3
#SpectrumID CCMSLIB00000005990
#IonMode Positive
#UpdateWorkflowName UPDATE-SINGLE-ANNOTATED-BRONZE
#LibraryQualityString Bronze
#TaskID d19310cd93df49b68e9fcbec27720eb5
##Scan# 3
#SpectrumFile Idarubicin.mgf
#LibraryName fda_library.mgf
#MQScore -1
#Organism fda_library
#TIC_Query 0
#RT_Query -1
#MZErrorPPM -1
#SharedPeaks 0
#MassDiff 0
#LibMZ -1
#SpecMZ 498.177
#SpecCharge 0
#internalFilename spec-00000.mgf

>collision 10
101.057243 30.177641
102.089973 61.29427
104.025192 26.187941
104.07061 169.727905
104.502563 5.347222
104.767273 4.842593
105.033455 333.340698
105.356079 7.898026
105.666527 4.180743
106.331535 14.00198
107.10553 4.869933
111.759804 12.0
111.85907 6.168982
112.075645 1317.129028
112.13504 11.71239
112.188881 4.296297
112.216232 9.33871
112.271545 5.216094
112.308495 11.13333
112.33448 7.71875
112.356232 3.815476
112.385918 10.86075
112.404297 4.069444
112.435463 11.82369
112.471107 9.895103
112.488518 5.173611
112.531013 9.660256
112.549393 14.15007
112.56369 10.67421
112.607285 14.88777
112.726379 12.07419
112.773773 3.520833
112.917061 5.328305
112.953949 6.484543
113.060081 5204.777832
113.095184 1.013889
113.166626 9.76299
113.186974 5.660539
113.202675 6.009804
113.213486 9.833333
113.232018 8.044225
113.256905 18.64904
113.273529 8.061018
113.295807 17.84355
113.34626 29.350031
113.419777 10.27253
113.4431 6.833333
113.475327 6.092949
113.51722 5.368421
113.581383 9.027675
113.707138 5.538691
113.72345 5.677083
114.061073 43.266479
114.10733 4.333333
114.211403 4.03293
114.391853 5.5625
114.549644 8.092803
114.75045 7.266666
115.051788 63.111851
129.345413 9.705309
129.375656 3.913377
129.398438 8.5625
129.436417 14.00024
129.450134 11.22519
129.503586 4.695513
129.515564 7.833333
129.535461 3.600833
129.567093 4.677778
129.610336 3.413691
129.646255 3.960938
129.702866 4.713362
129.744583 6.881548
129.848328 6.719217
129.947113 11.85417
130.015472 12.88484
130.058548 6.519737
130.086548 8951.361328
130.273819 37.513081
130.295349 25.049311
130.318466 36.236519
130.379013 9.621251
130.450317 23.89377
130.480362 24.716181
130.507233 7.551027
130.534241 12.05161
130.560013 5.182449
130.606827 18.225229
130.647552 7.247024
130.663589 15.80628
130.688492 10.09028
130.722931 9.407445
130.762054 9.020127
130.885056 4.89797
130.904953 5.005067
131.056259 3.505357
131.470779 4.677748
131.525864 6.527554
131.650742 19.930111
131.797836 7.681548
131.873962 4.02759
132.122162 10.53354
132.525955 3.736111
132.76236 5.693333
133.026108 137.804092
133.0634 13.48079
133.298996 8.048215
133.677856 8.337607
135.96994 4.440834
143.050873 129.117996
143.238953 3.741071
145.029205 34.84668
148.095856 89.260033
170.857071 6.333759
173.022446 59.779419
173.046997 3.335227
179.085602 30.047621
185.026764 20.677549
185.604614 4.667339
188.058731 11.89096
189.071548 126.889503
189.618332 3.388889
191.083374 132.121307
191.109924 6.224856
193.064392 71.761864
198.215179 4.026175
200.888596 6.363636
201.067291 94.141586
201.298065 7.380896
201.560715 10.5625
201.590988 5.647059
203.083786 29.52206
207.075943 116.890503
207.293732 17.368059
208.031372 3.339286
213.025894 4.440834
213.943756 2.847222
217.062836 282.310791
217.135895 3.858333
217.407684 3.84127
217.443619 11.35188
217.860779 7.047348
217.967163 5.833333
218.021667 13.15659
219.081055 62.545639
220.625458 11.03353
232.537796 6.837323
235.074112 107.0187
235.561096 5.502315
245.059647 56.470051
245.297806 10.86486
245.628387 3.734722
247.076965 208.098801
247.804443 4.166667
248.101837 7.391203
249.051178 12.92735
261.268372 3.490385
262.055237 5.0375
262.47287 6.805555
263.031372 11.5006
263.070679 575.484924
263.307983 4.94079
263.329437 21.64097
263.39801 4.888158
263.611084 7.762591
263.703339 8.956626
263.852142 13.59574
264.60199 3.672024
271.070007 10.50694
271.270142 3.500718
271.367676 9.707826
271.699982 5.199597
273.054626 495.294586
273.175781 5.676136
273.50824 3.765931
273.831665 3.840833
273.883514 3.895833
276.660004 5.052632
277.088898 23.701389
286.513519 1.851852
288.784851 4.413462
289.051697 11.94712
289.075073 7.140625
289.128113 3.190104
289.18161 10.22672
289.2005 7.113426
289.269623 24.37039
289.282959 53.530048
289.309082 21.407669
289.331116 37.88942
289.396149 44.881142
289.41214 4.666667
289.466248 48.638851
289.497284 36.5807
289.542999 37.415359
289.587677 29.13258
289.628601 22.543301
289.662048 26.05925
289.72821 24.64817
289.862061 11.27827
290.06076 44.076889
290.106049 10.32323
290.176453 16.22105
290.221222 65.611526
290.529114 5.650219
290.593506 18.72789
290.64502 19.38026
290.814819 11.21366
290.928955 4.234167
290.95282 7.169271
291.066345 32692.699219
291.124908 7.759524
291.386292 2.166667
291.495605 41.240082
291.53476 6.180744
291.577484 42.437199
291.604004 29.264481
291.668976 43.381081
291.684906 7.114583
291.7453 75.407379
291.788757 60.866989
291.832153 31.69549
291.891418 62.014481
291.916016 8.715365
291.952637 18.60471
292.142883 13.58041
292.354889 14.00944
292.437531 32.627628
292.695282 3.854167
292.7276 16.30022
293.170563 5.241667
293.190002 4.047348
293.241943 3.773809
293.302521 5.964527
293.51474 12.1994
293.694977 4.509804
293.71286 3.334559
293.867889 3.195513
294.040863 5.002778
294.087769 9.539216
294.530273 5.320076
294.646027 5.864268
294.745697 5.969477
295.193512 12.00987
295.258759 5.668982
295.603394 3.983553
295.653534 3.3075
296.797302 5.947662
299.061188 6.699755
300.095032 6.188844
305.079926 39.60775
305.533142 7.666667
307.524902 6.722222
309.070038 18.22727
313.089233 3.666667
313.575806 9.853536
315.062103 120.0681
315.623993 6.541667
317.079834 18.70417
324.893677 10.18452
331.139099 8.514493
331.176331 7.020833
331.23584 11.20119
331.359802 7.211957
331.974304 9.669308
332.100861 4.055556
332.49469 2.001602
332.906891 6.234486
332.988129 5.920139
333.049744 18.93358
333.075317 1317.44104
333.147156 10.1976
333.174255 8.371463
333.198944 4.364583
333.240875 20.072161
333.274963 4.672024
333.325836 5.002083
333.389282 10.68027
333.468811 7.6875
333.505951 4.060606
333.598267 4.753472
333.828003 5.004167
334.113831 5.50399
334.272888 5.522727
334.698883 4.670833
335.024323 11.51389
335.164185 17.808661
335.470825 3.926282
359.083954 4.620192
372.466339 9.950658
379.214752 5.344298
383.706818 11.59524
390.365479 13.22038
429.808594 8.564273
435.224213 3.506466
518.014526 1.5125
554.114502 3.520833
639.308716 6.01791
692.401794 3.983553
897.433899 3.182449
1102.586914 3.604167
1151.945679 5.500906
1463.670654 3.339799
1489.34021 13.32658
1626.637451 43.770828
1626.742188 6.788074
1626.850952 4.194221
1626.899414 0.84375
1687.914429 13.22782
