>compound Flurbiprofen
>formula C15H13FO2 
>ionization [M+H]+
>parentmass 245.097
#inchi InChI=1S/C15H13FO2/c1-10(15(17)18)12-7-8-13(14(16)9-12)11-5-3-2-4-6-11/h2-10H,1H3,(H,17,18)
#inchikey SYTBZMRGLBWNTM
#Ion_Source LC-ESI
#Instrument qTof
#Compound_Source Isolated
#PI Sirenas
#Data_Collector Ed Esquenazi 
#Scan -1
#Precursor_MZ 245.097
#ExactMass 0.0
#Charge 1
#CAS_Number N/A
#Pubmed_ID N/A
#Smiles N/A
#INCHI_AUX N/A
#Library_Class 3
#SpectrumID CCMSLIB00000005981
#IonMode Positive
#UpdateWorkflowName UPDATE-SINGLE-ANNOTATED-BRONZE
#LibraryQualityString Bronze
#TaskID d19310cd93df49b68e9fcbec27720eb5
##Scan# 2
#SpectrumFile Flurbiprofen.mgf
#LibraryName fda_library.mgf
#MQScore -1
#Organism fda_library
#TIC_Query 0
#RT_Query -1
#MZErrorPPM -1
#SharedPeaks 0
#MassDiff 0
#LibMZ -1
#SpecMZ 245.097
#SpecCharge 0
#internalFilename spec-00000.mgf

>collision 10
103.053825 131.945404
121.046341 67.03167
123.007919 33.47187
130.008881 16.683201
153.067963 49.71785
155.188004 12.29334
159.057343 72.748909
166.081528 18.000299
171.059555 147.015701
176.055649 28.692961
177.069809 155.505005
178.076935 957.447327
178.221939 28.911489
178.2491 11.38782
178.299728 20.69282
178.344208 25.98752
178.393448 10.06586
178.418091 15.88718
179.084824 3634.149902
179.142883 20.83753
179.203735 14.20674
179.340225 14.11465
179.556793 17.87933
179.711197 12.54403
179.831635 13.8346
179.881027 12.42172
182.07251 35.534828
183.059189 413.648804
183.118729 23.46771
184.067459 1281.909058
184.244598 24.82938
184.285843 13.90325
184.614166 14.3738
195.080917 20.3125
197.076828 921.763672
197.664886 12.85637
197.834824 10.71212
197.908401 10.88562
197.970535 16.231911
198.003983 14.59891
198.023819 10.69345
198.045959 13.61915
198.158142 12.90642
198.189377 16.373739
198.427902 29.755951
198.780624 31.57655
199.053055 65.525803
199.091583 9385.625977
199.192932 10.02896
199.25325 15.17656
199.28392 37.148911
199.303925 15.70603
199.330414 70.703781
199.384583 22.379539
199.455627 31.42841
199.509125 28.881189
199.537872 13.52083
199.567734 23.30036
199.616241 26.00028
199.640671 22.92609
199.664566 43.027279
199.726715 16.99157
199.809052 24.696939
199.908432 21.675381
310.806396 12.5
346.117004 11.18887
486.610596 20.47543
