>compound Riluzole
>formula C8H5F3N2OS 
>ionization [M+H]+
>parentmass 235.014053
#inchi InChI=1S/C8H5F3N2OS/c9-8(10,11)14-4-1-2-5-6(3-4)15-7(12)13-5/h1-3H,(H2,12,13)
#inchikey FTALBRSUTCGOEG
#Ion_Source LC-ESI
#Instrument qTof
#Compound_Source Isolated
#PI Sirenas
#Data_Collector Ed Esquenazi 
#Scan -1
#Precursor_MZ 235.015
#ExactMass 0.0
#Charge 1
#CAS_Number N/A
#Pubmed_ID N/A
#Smiles N/A
#INCHI_AUX N/A
#Library_Class 3
#SpectrumID CCMSLIB00000006316
#IonMode Positive
#UpdateWorkflowName UPDATE-SINGLE-ANNOTATED-BRONZE
#LibraryQualityString Bronze
#TaskID d19310cd93df49b68e9fcbec27720eb5
##Scan# 3
#SpectrumFile Riluzole.mgf
#LibraryName fda_library.mgf
#MQScore -1
#Organism fda_library
#TIC_Query 0
#RT_Query -1
#MZErrorPPM -1
#SharedPeaks 0
#MassDiff 0
#LibMZ -1
#SpecMZ 235.015
#SpecCharge 0
#internalFilename spec-00000.mgf

>collision 10
101.018829 201.180603
105.044731 765.711121
106.028053 22.25095
106.970215 17.568331
106.995247 62.717949
107.035637 101.485603
107.122093 15.82031
107.210892 12.50023
108.004501 76.637779
108.043869 89.808563
109.210983 30.749531
110.006348 323.252411
110.0382 149.655701
110.432205 11.5625
111.013588 3039.974121
111.04464 51.896042
111.059242 37.96125
111.141113 10.85007
111.168114 24.44565
111.191811 23.5432
111.25322 11.05145
111.266769 13.03719
111.339348 16.363951
111.357529 11.83333
111.437485 14.94059
111.496033 11.75763
115.001335 137.597198
115.029442 33.581268
116.029831 33.31332
118.050575 93.176003
120.997574 320.440887
121.027031 119.666
121.981606 25.70085
122.005661 2604.594971
122.226418 17.32444
122.269409 11.72222
122.98867 35.558102
123.013535 997.509583
123.29126 14.69881
123.997391 2064.447998
124.047684 15.16532
124.188591 10.96411
124.257927 11.86792
125.994301 14.8293
126.965843 10.74276
127.000679 1851.824951
127.347099 11.36608
127.418098 11.44444
128.027161 25.468929
132.98793 13.00798
133.039749 709.325012
137.017593 182.057404
137.201111 18.6101
137.281387 15.40358
137.335922 19.684031
137.429062 13.15695
137.46196 21.580509
137.478271 12.70238
137.536163 13.43045
137.575241 12.26076
137.997101 31.47761
138.024368 10647.080078
138.074539 57.418629
138.114624 31.9956
138.147919 12.86037
138.1604 11.03714
138.184128 13.3912
138.208511 15.33862
138.242447 60.02026
138.291473 53.840549
138.328568 39.879131
138.348984 22.33877
138.381241 11.36714
138.395996 24.0742
138.492538 25.52272
138.50531 11.45322
138.518448 19.068211
138.539139 11.88294
138.553329 15.29448
139.006287 128.535797
139.023361 92.833038
142.011703 58.1026
142.994537 37.11314
144.992081 56.563492
147.029205 10.78963
148.51004 13.80028
148.992004 197.945404
149.019104 1994.037964
149.06572 67.390312
149.123901 21.685631
149.202652 11.4824
149.264221 14.54144
149.287582 16.30979
149.63945 22.030069
150.024673 3299.726074
150.090439 17.593439
150.159561 17.351761
150.218094 16.22666
150.559662 17.221001
150.672928 13.44629
151.997955 16.6467
152.995834 18.512819
156.023315 30.882839
159.999466 25.024229
162.027359 15.30167
163.091995 17.45628
163.130798 25.3311
164.031021 4540.623047
164.086105 39.088989
164.139328 11.04141
164.170822 24.436449
164.187759 31.82645
164.205902 11.44318
164.222488 46.969261
164.34613 18.67737
164.355072 13.68507
164.440491 11.16477
164.518295 12.3776
164.570129 15.70333
165.011414 206.170105
165.052475 11.0037
165.156876 15.21149
165.431747 18.08135
166.019058 5824.539062
166.074585 54.772041
166.090881 22.42358
166.114578 25.19277
166.179367 13.0336
166.187393 31.3034
166.249496 21.84342
166.275314 14.68989
166.300354 43.154411
166.331635 22.4876
166.385864 21.46909
166.4086 13.25624
166.432831 15.14904
166.501251 18.33498
166.516586 16.24922
166.540482 14.12971
167.025253 32.553589
169.019562 155.243805
175.022507 31.35042
175.137283 17.080931
176.031448 393.889893
180.992096 61.778481
187.015594 15.36699
187.99292 13.83352
188.030243 16.612499
192.820374 13.92595
192.992722 1400.557007
193.054092 13.74273
202.034241 330.540802
202.223907 12.51172
202.679047 11.83519
208.002838 1336.504028
208.106506 11.05114
217.988754 35.267601
234.00798 28.092051
235.014053 2309.645996
235.089035 14.43871
235.220474 12.39951
235.336349 20.558929
235.394104 16.436991
235.933502 17.22061
236.268158 13.71707
924.730896 17.166901
983.652405 42.875
