>compound Metolazone
>formula C16H16ClN3O3S 
>ionization [M+H]+
>parentmass 366.068
#inchi InChI=1S/C16H16ClN3O3S/c1-9-5-3-4-6-14(9)20-10(2)19-13-8-12(17)15(24(18,22)23)7-11(13)16(20)21/h3-8,10,19H,1-2H3,(H2,18,22,23)
#inchikey AQCHWTWZEMGIFD
#Ion_Source LC-ESI
#Instrument qTof
#Compound_Source Isolated
#PI Sirenas
#Data_Collector Ed Esquenazi 
#Scan -1
#Precursor_MZ 366.068
#ExactMass 0.0
#Charge 1
#CAS_Number N/A
#Pubmed_ID N/A
#Smiles N/A
#INCHI_AUX N/A
#Library_Class 3
#SpectrumID CCMSLIB00000004528
#IonMode Positive
#UpdateWorkflowName UPDATE-SINGLE-ANNOTATED-BRONZE
#LibraryQualityString Bronze
#TaskID d19310cd93df49b68e9fcbec27720eb5
##Scan# 3
#SpectrumFile Metolazone.mgf
#LibraryName fda_library.mgf
#MQScore -1
#Organism fda_library
#TIC_Query 0
#RT_Query -1
#MZErrorPPM -1
#SharedPeaks 0
#MassDiff 0
#LibMZ -1
#SpecMZ 366.068
#SpecCharge 0
#internalFilename spec-00000.mgf

>collision 10
103.042068 51.647411
104.050507 122.972603
106.065422 14.26286
107.98761 26.756411
108.07724 45.863689
108.263039 13.46452
108.982193 189.546005
109.990761 74.350609
110.998001 79.899094
114.008324 20.32258
114.030815 13.0625
114.990807 10.31381
116.047432 157.257904
117.057144 283.467194
118.025551 44.137932
119.036842 77.61644
121.041855 23.96962
122.003601 23.4263
122.414726 11.42311
123.000374 143.1362
125.998291 10.55862
126.007591 75.770691
126.718582 10.25952
126.984673 52.906441
129.045151 22.883011
131.059219 26.075001
131.970856 12.46618
132.042877 183.329498
132.067596 176.326096
132.078903 78.545509
132.936493 21.837681
133.053009 237.696106
133.98201 18.18132
134.036285 29.136049
134.095657 117.387199
136.977814 33.20723
137.986893 94.287682
140.026276 42.196259
141.024002 12.85786
142.028152 87.832657
142.987747 46.459
143.269241 10.42857
144.042755 540.401306
147.054825 67.070122
150.009827 955.173523
150.324982 13.44444
150.388626 11.67298
150.397263 13.22222
151.017715 2463.343018
151.07048 14.07316
151.101242 43.054581
151.162323 13.76333
151.174637 16.40333
151.213562 10.27424
151.333542 12.875
151.456757 12.44709
152.019653 10.08333
152.946762 28.262239
153.027054 28.18478
154.005646 105.488098
158.001114 13.3967
159.009689 15.06667
159.053558 205.278503
159.623123 13.15697
160.035385 75.908096
160.062744 1005.828003
161.046722 271.303986
162.004074 32.805111
165.016373 11.86286
165.969986 15.04512
166.004074 81.626968
167.010376 83.030182
168.01973 55.43087
173.795029 16.4088
174.042023 31.29327
177.016434 71.82753
177.160645 52.109951
177.920578 11.68966
178.005371 2296.480957
178.062012 64.606087
178.086197 33.465549
178.111176 21.657261
178.132996 11.07454
178.188019 31.40427
178.4189 18.525
178.44455 26.66893
178.500565 33.27887
178.960144 12.44938
179.012878 7471.081055
179.098831 11.68182
179.118149 15.86562
179.17247 30.163811
179.189545 19.4
179.210724 41.519741
179.246948 44.147381
179.277771 16.68638
179.293945 29.062901
179.367661 43.524052
179.387177 46.942699
179.491989 11.9225
179.599396 11.55333
179.642029 13.69014
179.848602 13.37857
180.102844 12.38788
180.493774 16.97591
180.686737 16.02132
181.988556 15.40034
193.137665 10.81096
193.998764 283.731506
194.455215 10.6963
195.029266 19.50456
195.229233 10.87108
196.014633 547.148315
202.026321 25.68474
206.08049 16.61944
211.02507 10.72654
213.971283 10.62155
216.983627 34.219528
217.965652 68.577278
223.012665 108.323502
230.994522 14.58345
232.976059 71.951477
233.09903 29.99247
241.964951 43.20158
248.118576 15.00227
256.969696 16.996981
257.359314 11.43971
257.717377 15.00192
258.482727 12.05833
258.577942 16.491131
258.928314 44.666409
258.993134 5146.313965
259.059662 11.35833
259.081726 21.495119
259.111969 13.32819
259.139008 21.82715
259.193756 42.205391
259.268768 30.114281
259.290741 17.316071
259.317322 19.54126
259.33371 11.26706
259.467041 28.06665
259.495605 11.45606
259.528778 12.51928
259.551453 11.83319
259.588654 23.317381
259.854218 17.71167
260.184387 18.2929
267.070099 15.14745
268.07489 141.854599
285.077759 11.54559
332.021515 15.6892
332.0401 12.01775
348.052948 52.119099
