>compound Anastrozole
>formula C17H19N5 
>ionization [M+H]+
>parentmass 294.172
#inchi InChI=1S/C17H19N5/c1-16(2,9-18)14-5-13(8-22-12-20-11-21-22)6-15(7-14)17(3,4)10-19/h5-7,11-12H,8H2,1-4H3
#inchikey YBBLVLTVTVSKRW
#Ion_Source LC-ESI
#Instrument qTof
#Compound_Source Isolated
#PI Sirenas
#Data_Collector Ed Esquenazi 
#Scan -1
#Precursor_MZ 294.172
#ExactMass 0.0
#Charge 1
#CAS_Number N/A
#Pubmed_ID N/A
#Smiles N/A
#INCHI_AUX N/A
#Library_Class 3
#SpectrumID CCMSLIB00000004760
#IonMode Positive
#UpdateWorkflowName UPDATE-SINGLE-ANNOTATED-BRONZE
#LibraryQualityString Bronze
#TaskID d19310cd93df49b68e9fcbec27720eb5
##Scan# 3
#SpectrumFile Anastrozole.mgf
#LibraryName fda_library.mgf
#MQScore -1
#Organism fda_library
#TIC_Query 0
#RT_Query -1
#MZErrorPPM -1
#SharedPeaks 0
#MassDiff 0
#LibMZ -1
#SpecMZ 294.172
#SpecCharge 0
#internalFilename spec-00000.mgf

>collision 10
102.046745 10.54748
103.05442 74.155167
103.588684 2.004167
105.069946 44.73444
106.522789 2.220395
113.039368 36.69273
114.047424 13.20217
114.470047 11.754
114.621513 3.704167
115.053841 687.645508
115.115753 4.944444
115.146736 5.400833
115.172432 7.362319
115.265823 5.426136
115.385368 7.721847
115.407463 3.240741
115.478806 4.898148
115.763229 7.266447
115.909134 2.220395
115.927864 2.183333
116.088982 4.172348
116.095535 1.241071
116.128357 3.145833
116.148964 4.280093
116.41909 5.14685
116.43396 2.027778
116.606827 6.534226
117.056503 78.491043
117.06855 124.171402
117.088173 4.334105
117.20089 1.52381
118.076736 18.693939
118.250931 1.670833
119.084717 7.857143
119.71582 12.34397
120.992912 6.948718
121.998764 20.406401
125.033951 11.92908
126.045822 42.444141
127.050537 34.962818
128.059586 148.940399
128.109741 2.669444
128.330994 7.779321
128.402832 10.22165
128.455856 1.840278
128.519577 4.686404
128.689224 5.79709
128.939957 3.291667
129.070328 935.346008
129.135651 9.447536
129.174622 4.624188
129.260132 5.645833
129.294724 2.520833
129.376846 7.705246
129.419556 8.91358
129.435684 8.408334
129.463577 12.31667
129.483688 4.666667
129.590027 8.611907
129.63678 9.340833
129.732742 1.84375
130.077164 1295.756958
130.119644 1.008333
130.127991 9.392857
130.152802 2.513889
130.197754 1.575
130.209122 7.540064
130.269562 17.23737
130.289673 3.828305
130.304672 4.898148
130.344147 3.170455
130.355682 2.1125
130.407822 1.5625
130.442581 9.280093
130.518768 2.194444
130.530075 19.31447
130.562851 6.227941
130.570633 1.169643
130.595261 6.075
130.741257 2.1125
130.785797 4.782052
130.948669 16.8901
130.996475 3.828305
131.085617 619.24823
131.135727 1.339286
131.164276 11.5496
131.171768 2.336539
131.295135 2.4
131.331009 3.170139
131.402786 2.740036
131.598267 6.017045
131.967133 2.380952
131.98967 4.980183
133.947296 4.833333
140.048767 105.601898
140.060989 34.72496
140.223007 1.741667
140.353867 1.339286
140.941483 13.33449
141.070206 148.609695
141.100388 3.262019
141.16452 2.344363
141.247253 11.24674
141.30072 10.64797
141.383667 6.925245
141.415817 4.611883
141.43187 4.074405
141.503128 9.135
141.526764 5.355978
141.731354 3.333333
141.997025 8.709636
142.064972 1857.530029
142.116425 10.18068
142.132416 15.15151
142.147781 1.8125
142.194687 2.003788
142.237091 2.834559
142.261154 12.76877
142.28688 13.92348
142.296051 8.518678
142.304184 0.854167
142.314774 4.320513
142.327957 2.0625
142.34259 12.14108
142.380325 10.74213
142.411575 2.786706
142.428192 6.277039
142.444626 7.207207
142.461304 8.833611
142.48082 10.16774
142.527191 4.920139
142.572708 0.888889
142.581757 15.89676
142.610855 7.500379
142.691345 5.580044
142.893402 1.6875
143.080734 325.205292
143.222107 4.530934
143.380997 7.594733
143.456314 4.780092
143.495728 2.28125
143.676392 3.125
143.891586 5.24671
144.909058 3.375
145.099777 67.41143
145.483902 3.15
153.057968 74.802078
153.582443 5.402369
153.888565 7.140625
154.067322 156.955399
154.121826 1.333333
154.229813 2.179167
154.85762 4.517045
155.071716 150.947906
155.082428 63.911369
155.098282 3.814951
155.160248 9.016835
155.234299 2.279167
155.437683 3.900833
155.453888 2.277778
155.61554 9.235649
155.911102 1.408333
156.082779 383.783813
156.127975 3.420139
156.201874 5.773333
156.26709 2.833333
156.35408 2.197304
156.393295 2.668269
156.406815 12.7301
156.429688 14.48443
156.444595 13.91188
156.664047 4.483477
156.713303 6.02537
156.835938 8.373775
157.042496 3.023809
157.087708 801.601013
157.215637 12.69211
157.25148 4.382936
157.275711 5.586805
157.289017 5.520833
157.352844 4.630952
157.421661 2.695513
157.470093 2.1125
157.515854 14.23631
157.607132 8.805093
157.819794 2.366667
158.068329 6.661184
158.097382 186.016403
158.107193 19.915569
158.132568 3.413377
158.148239 2.64881
158.466782 2.168982
158.552216 6.109068
159.533173 2.481618
159.778732 2.677696
165.071762 10.23188
167.072754 105.649399
167.144424 6.343487
167.373825 3.000992
167.518372 6.501994
167.895813 1.166667
168.080185 834.094727
168.121277 1.0
168.207001 5.702587
168.216019 3.704475
168.3694 2.720395
168.798584 4.620192
168.83699 1.9375
168.957367 2.265931
170.096588 288.631012
170.130692 4.230556
170.180008 1.354167
170.201508 1.241071
170.643173 4.000672
170.843262 3.177696
171.115021 137.297501
171.148468 2.670833
171.401245 3.504167
172.618073 1.820076
173.345825 5.136111
178.06279 19.74707
178.293625 3.0625
179.154251 4.874167
179.713852 3.15
180.066681 9.987714
180.088852 1.083333
181.996323 4.508772
182.069336 5.880952
182.09433 109.1838
182.172134 1.986742
182.268982 6.456018
182.790344 2.340833
183.102966 354.842407
183.140091 2.5375
183.152695 4.002193
183.261002 8.3875
183.30481 1.633333
183.455002 3.926282
183.524887 5.183435
183.58609 0.835648
184.03804 4.469697
192.083893 18.74534
193.082718 24.67864
193.14415 1.020833
193.16835 6.878623
193.342896 2.1125
193.918503 3.6
194.083282 35.763721
194.111359 2.963542
194.134491 1.907738
194.190231 1.170833
194.291702 3.695513
194.334152 5.055556
194.456757 2.574074
194.621597 4.666667
194.781219 2.966009
195.057358 5.969697
195.091095 1254.671997
195.148514 6.480727
195.170425 0.860119
195.194778 1.901389
195.275833 3.783334
195.326263 3.640833
195.355133 6.507246
195.4021 10.19048
195.43335 7.464221
195.598251 3.667892
195.667297 2.851974
195.724854 2.179167
195.752487 6.650144
195.954575 2.851974
196.091965 6.072024
196.111191 20.29952
196.884918 7.088443
196.94838 3.666667
197.107025 26.39448
197.202332 2.336806
197.417465 8.515
197.466232 4.667201
198.126221 411.848511
198.328964 4.526786
198.426025 5.633333
198.538284 4.009259
199.479568 2.945833
207.018982 4.423611
207.910919 3.011905
207.95105 4.752541
207.97171 2.296875
208.098587 5.893518
208.126678 2.370833
208.89711 2.320076
208.909454 7.969551
208.965668 6.752688
209.003204 5.377778
209.036087 3.002451
209.107254 907.333923
209.175049 29.69828
209.227463 4.234167
209.252411 1.125
209.304184 6.977888
209.326645 25.24258
209.383423 3.463735
209.409668 10.90534
209.434937 13.51987
209.618225 4.707022
209.705582 3.010417
209.767166 8.499015
209.869614 11.87048
210.073105 32.896721
210.114334 2920.7771
210.193329 6.59375
210.218323 16.06481
210.24585 5.684626
210.308746 14.24781
210.342865 3.833333
210.403183 9.102564
210.451843 5.5
210.467224 18.974159
210.487167 2.333333
210.50737 4.867772
210.528549 5.186275
210.552032 10.80504
210.618912 9.198413
210.638855 3.994971
210.654404 15.57444
210.684067 7.210541
210.94281 12.84593
211.107864 9.5625
211.119781 53.534039
211.179214 4.365079
211.523148 2.838542
211.751923 9.486492
211.770477 1.592803
211.831894 8.849038
212.93718 23.01442
221.199097 5.461436
223.652893 2.840278
223.694824 6.504505
223.740295 2.375
223.795654 21.77429
223.819733 4.05819
223.838852 13.29427
223.867142 6.706117
223.913437 7.962317
223.955582 12.55229
223.968887 7.351439
224.038376 4.503205
224.095657 7.333712
224.132919 27.151871
224.167648 11.7872
224.189392 5.342105
224.222321 5.273438
224.237289 2.733252
224.267578 2.240741
224.317093 8.189352
224.376953 7.500286
224.429214 6.800463
224.575027 4.009804
224.75032 7.351974
224.855774 4.354167
224.914185 3.560606
225.108398 30.642771
225.138336 5308.458008
225.182068 29.31605
225.201218 58.519562
225.22641 9.757576
225.263718 6.044225
225.279755 12.04876
225.296066 3.000992
225.320404 8.4375
225.339127 37.766991
225.373383 5.19697
225.390167 12.96017
225.407272 7.003788
225.422165 17.887951
225.441788 6.822917
225.464417 4.628205
225.477844 8.22743
225.495941 10.8287
225.509186 5.504506
225.539764 12.29306
225.57193 9.35852
225.592804 9.891522
225.619034 8.334105
225.634598 4.960318
225.718277 6.043403
225.772812 8.337501
225.786102 12.01515
225.801849 5.833333
225.854218 8.845269
225.884125 11.75952
226.065735 7.814438
226.079834 7.036599
226.644043 3.208333
226.686172 7.927083
226.739822 7.004167
226.998306 4.653409
227.094818 3.334722
227.320587 8.361112
227.388596 3.503788
227.656219 1.833333
227.997574 8.685308
228.528381 2.544384
229.396896 8.168561
343.940552 2.14881
654.68689 5.26875
1038.308838 5.602134
1406.583618 1.354167
