>compound Loratadine
>formula C22H23ClN2O2 
>ionization [M+H]+
>parentmass 383.15208210809055
#inchi InChI=1S/C22H23ClN2O2/c1-2-27-22(26)25-12-9-15(10-13-25)20-19-8-7-18(23)14-17(19)6-5-16-4-3-11-24-21(16)20/h3-4,7-8,11,14H,2,5-6,9-10,12-13H2,1H3
#inchikey JCCNYMKQOSZNPW
#Ion_Source LC-ESI
#Instrument qTof
#Compound_Source Isolated
#PI Sirenas
#Data_Collector Ed Esquenazi 
#Scan -1
#Precursor_MZ 383.154
#ExactMass 0.0
#Charge 1
#CAS_Number N/A
#Pubmed_ID N/A
#Smiles N/A
#INCHI_AUX N/A
#Library_Class 3
#SpectrumID CCMSLIB00000006521
#IonMode Positive
#UpdateWorkflowName UPDATE-SINGLE-ANNOTATED-BRONZE
#LibraryQualityString Bronze
#TaskID d19310cd93df49b68e9fcbec27720eb5
##Scan# 2
#SpectrumFile Loratadine.mgf
#LibraryName fda_library.mgf
#MQScore -1
#Organism fda_library
#TIC_Query 0
#RT_Query -1
#MZErrorPPM -1
#SharedPeaks 0
#MassDiff 0
#LibMZ -1
#SpecMZ 383.154
#SpecCharge 0
#internalFilename spec-00000.mgf

>collision 10
102.055717 1047.161987
108.4925 8.691667
116.070213 244.312805
118.063843 65.869957
126.054466 821.403076
126.309776 15.31322
127.307808 34.99099
130.06514 200.116806
132.079254 106.542198
151.337311 15.22866
154.086075 2086.957031
154.144302 7.242816
157.088608 29.4438
161.572617 80.804802
163.030426 87.685127
175.029922 64.953217
177.049667 77.872108
178.073334 74.23838
180.092712 35.41618
182.542496 21.457319
188.268875 23.024191
192.078812 63.379631
193.086884 90.884438
201.057892 26.93919
202.063034 23.963539
205.085358 26.375
206.095184 34.668331
207.58989 12.34028
214.040771 709.067322
214.063675 55.483971
217.088181 293.458313
218.093124 170.494202
219.100906 162.309906
219.589035 7.0
222.069489 34.297619
226.039505 266.388702
227.048035 250.354599
228.057297 2655.235107
228.406311 19.378151
229.064484 2119.6521
230.098251 475.940613
231.104218 1054.072021
231.780167 32.27412
232.111343 556.046021
233.1185 537.215515
240.057114 34.76535
241.088348 143.846695
241.84465 18.13286
242.074097 122.729797
242.095016 211.554092
242.966202 18.81028
243.067749 222.238205
243.10498 983.094177
244.112381 677.656921
244.367645 17.16333
244.726318 8.371913
245.119064 1134.560059
245.498871 9.856061
246.127853 1828.082031
246.919159 17.480021
247.034958 79.965988
247.084976 194.017303
247.843765 8.001985
248.092957 898.545227
251.048172 371.028198
251.587555 14.00076
251.703308 9.041667
252.057907 945.189026
253.011337 28.889709
253.066193 1998.041992
253.182465 16.70833
256.049622 103.334
256.11377 172.2621
257.082062 64.891891
257.119049 7007.60498
257.660492 15.32898
257.68219 21.57209
258.065582 9.041667
258.087952 112.209602
258.46521 27.135189
258.71698 17.579269
258.796143 60.39159
258.89502 29.58687
259.136047 28361.539062
259.207855 64.381981
259.247009 21.69565
259.321655 15.66727
259.344086 8.833333
259.373596 7.486111
259.43573 22.579081
259.481964 33.093922
259.523376 12.66779
259.564209 17.555559
259.615265 32.45192
259.764313 18.47756
259.782562 8.413462
259.835327 16.667931
259.921448 12.33621
259.949493 23.11441
260.067535 32.871719
260.300507 29.75901
260.729767 8.668478
260.988312 19.340151
261.471893 19.12398
262.992859 15.71795
264.057281 222.348602
264.139343 14.61602
264.374939 19.89352
264.537262 8.080882
264.699402 7.455883
265.067291 252.728104
265.536285 24.836309
265.594421 9.171748
265.629791 52.47031
265.809509 10.89382
266.047699 126.645798
266.074097 6120.734863
266.144684 8.399194
266.280884 16.002689
266.462891 14.23978
267.081451 35513.761719
267.153107 33.870831
267.199585 31.33754
267.232117 19.049801
267.260956 44.024109
267.275452 9.684524
267.293884 21.3887
267.308807 30.76585
267.331726 16.0947
267.354889 7.666667
267.371796 38.023392
267.449768 19.745569
267.466644 17.12855
267.493835 25.3631
267.51416 9.015
267.596924 47.995941
267.639435 10.24038
267.671844 26.605619
267.780609 23.746691
267.838654 11.85799
267.869507 40.351189
268.329163 19.0947
268.750366 9.350877
269.075562 7.704166
269.14386 18.48214
270.055725 2005.725952
270.303497 10.48214
270.367035 23.777781
273.115326 17.97349
273.139221 215.376205
274.14679 240.190094
275.119415 55.334148
275.831146 88.952522
277.063354 74.825684
277.411133 13.33929
277.819 17.385679
278.072388 602.504578
278.480957 11.21802
278.794525 16.66733
279.045502 70.370506
279.081848 4340.23584
279.160614 7.520833
279.5737 28.48214
279.992432 8.4375
280.021362 47.707211
280.089264 6101.095215
280.301025 13.8125
280.405884 9.337121
280.493134 12.64015
280.540375 14.58333
281.063873 113.238701
281.097107 15388.990234
281.175079 15.17708
281.22345 59.447411
281.251221 8.335
281.281403 21.102051
281.309723 17.34783
281.384857 20.92708
281.421295 101.761101
281.443451 21.41667
281.469696 32.55555
281.484283 24.383711
281.631897 25.286169
281.823456 29.401899
281.877167 18.713539
282.104919 20818.039062
282.199585 23.22039
282.245178 8.481667
282.267303 8.810714
282.29068 14.94092
282.380524 26.79167
282.524506 34.005051
282.571686 31.739599
282.629791 15.21094
282.723328 17.670641
282.922913 8.818548
282.959991 34.226028
283.06488 1996.172974
283.166962 9.74359
283.257935 43.041672
283.332214 9.375
283.355499 15.06944
283.49649 40.518051
283.544708 9.016666
283.800842 7.706141
283.958771 24.8652
284.117279 8.044118
284.340302 22.326611
284.92453 15.64651
285.086487 29.0
288.166351 19.54427
290.067657 44.896332
292.055756 325.368286
292.089355 3081.860107
292.399292 19.00556
292.431427 43.971432
292.445709 18.400539
292.558655 11.01333
292.59436 15.70968
292.641296 65.83519
292.683533 7.444445
292.850555 8.444445
293.285553 14.02042
293.745697 23.852079
294.10495 33282.910156
294.177002 86.952492
294.203827 25.002171
294.248718 61.395729
294.28009 13.10256
294.334503 30.00667
294.361298 59.133461
294.380341 53.35606
294.403778 45.335419
294.453949 12.02042
294.473114 17.71627
294.543549 8.391026
294.567474 12.72429
294.602112 20.653851
294.734863 19.096491
295.049622 66.675133
295.322937 16.55648
295.386688 26.455219
295.948517 15.83128
296.690857 9.72
300.378845 11.42857
301.13562 324.386414
301.151855 20.16329
302.08905 76.655144
302.141266 3841.01001
302.231628 9.897988
302.443817 16.53125
302.557343 15.75758
302.574219 7.333333
302.635101 23.145081
303.64624 11.04412
304.275543 11.20833
304.415833 17.10965
308.084991 205.755493
309.114258 984.039124
309.923309 45.91959
311.132721 3682.155029
311.461914 10.16329
311.486053 13.53086
311.560638 29.222219
319.107147 63.094471
320.08197 514.481628
320.153992 98.667732
322.087982 3082.208008
322.311096 8.049797
322.394745 9.335318
322.614044 17.04167
322.856293 7.779762
323.129822 16.82036
323.279877 9.810714
325.698792 15.67816
333.970825 19.92708
334.882172 95.802589
334.923401 14.00765
334.956787 320.489899
334.982819 323.866791
335.009979 126.757698
335.09668 790.724609
335.160645 408.206787
335.207855 234.4897
335.229584 109.441902
335.261139 486.638885
335.304443 336.249603
335.332489 196.680405
335.354279 69.513283
335.417877 107.465202
335.507996 136.2043
335.526062 23.854679
335.560852 157.012695
335.630493 230.255005
335.648682 16.054819
335.671875 30.125
335.714325 25.07892
335.78363 152.115799
335.857239 221.190506
336.04657 63.361691
336.40152 8.003205
336.492706 11.29167
336.716705 29.04167
336.808167 43.643429
336.995941 96.328323
337.044861 746.93457
337.111908 535951.3125
337.643616 32.73542
337.662659 152.240906
337.688568 79.917526
337.713562 274.675507
337.753571 471.5401
337.799866 142.908096
337.819672 32.090931
337.837555 192.796295
337.860657 308.197113
337.909119 208.864899
337.947876 320.09671
337.989685 256.548401
338.030823 250.854507
338.188751 65.984879
338.299866 316.166412
338.38678 106.381897
338.412598 156.298492
338.455322 205.098206
338.511627 16.65642
338.533539 25.044399
338.557709 32.17767
338.591278 77.413483
338.614258 14.7002
338.874573 150.192001
339.163208 9727.438477
339.20993 46.394199
339.35968 58.944012
339.508942 47.128578
339.547272 21.0
339.638519 7.679598
339.731232 17.559681
339.753601 38.377949
339.805573 7.668478
339.934814 10.18534
339.959076 12.07407
340.091553 55.379902
340.291534 24.81373
340.825714 15.08003
340.924164 7.414216
341.256165 19.336309
341.38562 23.94936
341.856964 8.680555
342.008514 21.02174
343.528442 7.357143
344.048645 7.964285
345.78894 10.42455
348.183716 1328.406006
353.092529 14.69444
353.432129 15.16462
353.831024 15.33415
354.121704 576.595825
354.839722 25.059311
355.122009 7657.087891
355.213135 7.148809
355.257874 20.51894
355.316467 15.04938
355.408661 41.625
355.499329 23.222219
355.538879 16.92647
355.56073 15.33333
355.593536 13.02885
355.653992 9.875
356.770813 11.075
368.128998 133.474106
377.991638 14.38782
378.972351 9.240384
380.409393 22.33847
380.494659 49.12225
380.52533 22.00765
380.575073 26.360041
380.610565 203.813095
380.651093 113.142097
380.697266 899.688721
380.739594 47.127449
380.771576 166.892105
380.802521 615.070984
380.836639 467.174988
380.914368 1003.692993
380.965027 490.654785
380.995422 576.85968
381.027191 89.0
381.053711 613.947327
381.087616 689.548584
381.135773 1079.215942
381.223785 594.738525
381.259003 422.279205
381.319153 23.335649
381.372833 388.431885
381.733276 65.749802
381.850372 20.10965
382.016541 582.758423
382.113342 388.10141
382.178345 260.786591
382.287903 42.133629
382.311127 14.84722
382.346283 81.270813
382.455475 154.746201
382.498535 119.243301
382.522675 24.08013
382.546875 80.681511
382.585388 118.746696
382.786499 41.7425
382.884186 86.085228
383.154358 944894.8125
383.737183 119.856903
383.758301 520.297791
383.790985 176.904907
383.824768 481.428406
383.870605 346.953308
383.902191 195.487595
383.935913 437.216705
383.971771 61.44648
384.057465 379.199005
384.080872 63.800949
384.10083 361.105713
384.452515 26.197531
384.498657 124.008797
384.538788 83.175484
384.585297 88.663223
384.669861 125.957397
384.699249 145.188095
384.857941 40.319359
384.953217 39.96664
384.989807 171.660095
385.150818 211.124298
385.224152 23.57065
385.273376 144.186203
385.301666 25.16964
385.35144 174.786407
385.399323 17.0
385.4328 34.698811
385.472107 187.485306
385.559814 9.827381
385.588684 100.330299
385.830505 36.695801
385.880341 53.192001
386.123566 14.02541
386.336243 25.89352
386.54892 12.25
386.671692 22.202379
386.704987 11.89532
386.992096 15.34205
387.238892 16.4401
387.402283 17.415001
388.458527 54.85239
388.663483 12.84314
389.133667 8.190217
389.164825 28.754101
389.322998 15.21111
389.769196 17.16021
389.865356 12.18841
394.335876 11.14371
397.028778 73.792618
406.078888 9.108974
408.652344 17.757879
411.344177 9.797101
440.48941 12.81333
657.323059 71.795967
780.150269 15.89189
913.454041 14.70939
933.732056 16.26882
1392.832642 43.405628
