>compound cyclo(L-Phe-L-Pro)
>formula C14H16N2O2 
>ionization [M+H]+
>parentmass 245.128
#inchi InChI=1S/C14H16N2O2/c17-13-12-7-4-8-16(12)14(18)11(15-13)9-10-5-2-1-3-6-10/h1-3,5-6,11-12H,4,7-9H2,(H,15,17)/t11-,12-/m0/s1
#inchikey QZBUWPVZSXDWSB
#Ion_Source DI-ESI
#Instrument qTof
#Compound_Source Isolated
#PI Keyzers
#Data_Collector R Keyzers
#Scan -1
#Precursor_MZ 245.128
#ExactMass 244.121
#Charge 1
#CAS_Number 3705-26-8
#Pubmed_ID N/A
#Smiles N/A
#INCHI_AUX N/A
#Library_Class 3
#SpectrumID CCMSLIB00000007041
#IonMode Positive
#UpdateWorkflowName UPDATE-SINGLE-ANNOTATED-BRONZE
#LibraryQualityString Bronze
#TaskID 76b66bf1ccd04cec9993212b36387ea3
##Scan# 1
#SpectrumFile CDB02_15F_pos_MSMS_001_1.mgf
#LibraryName gnps_library.mgf
#MQScore -1
#Organism test_rob_keyzers
#TIC_Query 0
#RT_Query -1
#MZErrorPPM -1
#SharedPeaks 0
#MassDiff 0
#LibMZ -1
#SpecMZ 245.128
#SpecCharge 0
#internalFilename spec-00000.mgf

>collision 10
28.017023 58.142239
32.792912 55.349998
41.038849 1290.371948
41.097855 35.052631
42.038624 88.370613
43.018539 411.610413
43.053635 1585.641968
44.054386 301.0
55.018124 275.010315
55.05476 975.827026
56.055729 192.880997
57.021622 289.29071
57.067951 1032.000977
57.105198 46.058819
58.02895 82.100609
58.070366 460.388489
59.04924 115.224998
62.059582 105.469398
62.982666 39.326611
63.45528 37.778221
65.037827 187.189407
65.603333 52.185612
66.043213 205.3255
67.054001 364.719086
68.049644 2156.791016
68.125557 36.926281
69.070129 1285.911011
70.065475 34445.25
70.141716 532.309082
70.215691 85.004997
70.333389 44.0
70.3787 39.0
70.43354 56.148811
70.498207 57.11364
70.517609 61.84211
70.546585 85.898148
71.033432 104.371201
71.067696 1398.604004
71.386658 58.326611
72.043549 130.320297
72.080795 354.000793
73.433479 61.785709
74.071724 50.445
75.044044 106.256401
77.038879 687.328918
78.098175 50.244999
79.055244 577.771423
80.055847 178.019196
81.06974 951.017517
82.065224 589.31012
83.083633 541.328796
84.03096 140.531296
84.078606 441.253113
85.076088 2095.397949
86.096306 614.653076
87.055122 56.375
88.073845 53.69397
89.034424 302.128998
90.045769 1079.515015
91.053581 7857.549805
91.470673 45.166672
92.058952 872.870117
93.029732 101.111504
93.069878 848.528015
95.085678 328.715302
96.045563 1214.890015
96.078407 417.765686
97.059624 302.204712
97.10408 232.1689
97.946053 42.560181
98.059914 5321.009766
98.150032 57.077591
98.175049 43.25
99.062256 296.35379
100.077019 1130.838989
101.068764 120.675003
102.093155 485.03421
103.053864 3787.668945
103.148689 47.57143
103.632889 48.11364
103.945023 39.333328
104.057831 583.876221
104.76165 42.570648
105.068169 1348.412964
106.067192 205.593994
107.087242 605.733887
108.044914 110.289398
108.076202 209.0952
109.046921 94.06649
109.073723 227.105301
109.097374 145.336502
110.073891 171.289993
111.05294 250.306793
112.027748 873.011475
113.058708 255.3517
114.095009 103.428596
115.057007 413.200806
116.052879 230.564102
117.062843 254.045303
118.042259 5936.950195
118.142128 85.208344
119.065887 495.367401
119.59462 35.560181
119.721321 42.96983
120.080582 19526.490234
120.180023 246.021393
120.208778 42.625
120.561104 70.728447
120.940498 36.605
121.083733 983.540527
122.093933 92.80278
123.026344 75.020447
123.119148 145.840302
124.060822 1010.513
124.106987 319.125
125.0709 1230.526978
126.039925 188.653107
126.078606 1313.26001
127.079185 68.625
128.066589 400.17749
128.107574 121.432098
130.064651 972.082214
130.184814 47.840912
131.054459 689.327087
131.587479 36.55682
132.081146 655.787476
133.027008 82.25798
133.069962 263.462891
134.070618 137.238403
136.057587 87.820457
137.070465 1133.817017
137.12912 83.349998
138.040649 92.61731
138.072144 97.04348
139.111465 43.25
140.06015 88.900864
141.087463 35.005951
141.964478 35.0
142.726761 70.148148
143.073944 70.568176
144.043884 1250.807007
145.079971 181.222794
146.089905 248.609802
148.074997 408.82251
148.122452 116.564003
149.076584 66.050003
151.048706 263.102386
152.054596 473.000702
152.6259 41.96983
153.066269 2562.539062
153.166611 37.694439
154.073792 16706.779297
154.18634 153.055603
154.222061 42.14286
154.342789 44.333328
154.416534 44.30682
154.635162 78.375
154.718094 71.925926
154.969025 52.164471
155.073929 543.061523
155.239578 53.044998
155.381165 39.444439
156.051224 48.166672
157.07576 408.950714
158.097794 302.977905
160.043503 85.333344
160.110504 6865.104004
160.226135 64.247643
160.573532 57.55682
161.116287 2745.043945
161.231613 61.125
162.117279 241.535004
162.257278 41.125
163.152863 108.816902
165.078369 46.845001
167.075699 120.344498
168.080185 115.892899
169.080566 78.387817
170.096695 1939.494019
171.09845 747.566528
171.871124 39.94231
172.110916 3994.260986
172.23053 50.529411
180.069168 36.20454
182.091156 43.0
184.072296 230.127502
184.685989 38.111839
185.106339 1961.041016
185.44928 46.01667
186.058975 98.041656
186.096817 134.125
187.122147 1746.234009
188.124588 527.473694
188.988617 37.285709
189.130569 64.014709
190.246582 51.400002
193.097763 44.44643
195.072891 92.848083
197.108154 475.910889
198.110336 96.440002
199.127548 358.892914
200.103043 264.222198
201.097 107.677803
202.10759 245.930298
203.094803 37.57143
209.221329 41.107761
212.122559 89.058823
215.11792 749.320129
216.119324 193.692307
217.133041 820.319519
218.132553 195.533005
226.129532 65.148811
227.145081 39.004311
228.099319 57.416672
230.097992 61.013161
242.280106 43.48077
243.117859 44.0
244.111679 117.006599
245.121323 139.285706
270.778137 50.760139
329.287323 48.025002
334.741364 37.005951
341.553375 65.761902
384.251099 47.882351
405.800842 44.224998
416.802246 66.25
454.710632 36.291672
507.040253 39.004631
518.307678 40.125
577.783569 50.01786
635.889893 39.01923
640.303467 55.512501
752.663391 173.533905
785.965027 39.520828
798.200562 49.76923
852.129028 38.160709
861.744141 81.680557
877.507202 62.529411
929.976318 50.816669
