>compound Disulfiram (Antabuse)
>formula C10H20N2S4
>ionization [M+Na]+
>parentmass 319.038788
#inchi InChI=1S/C10H20N2S4/c1-5-11(6-2)9(13)15-16-10(14)12(7-3)8-4/h5-8H2,1-4H3
#inchikey AUZONCFQVSMFAP
#Ion_Source LC-ESI
#Instrument qTof
#Compound_Source Commercial
#PI Dorrestein
#Data_Collector Garg_Neha
#Scan -1
#Precursor_MZ 319.04
#ExactMass 296.051
#Charge 1
#CAS_Number 97-77-8
#Pubmed_ID N/A
#Smiles CCN(C(SSC(N(CC)CC)=S)=S)CC
#INCHI_AUX N/A
#Library_Class 1
#SpectrumID CCMSLIB00000078238
#IonMode Positive
#UpdateWorkflowName UPDATE-SINGLE-ANNOTATED-GOLD
#LibraryQualityString Gold
#TaskID 77f51c88eb8b467eb4a01dd2d0cb90d2
##Scan# 2468
#SpectrumFile Plate4_1_20_GH2_01_16503.mzXML
#LibraryName FDALibrary_2_04302014.mgf
#MQScore -1
#Organism FDALibrary_2_04302014
#TIC_Query 0
#RT_Query -1
#MZErrorPPM -1
#SharedPeaks 0
#MassDiff 0
#LibMZ -1
#SpecMZ 319.04
#SpecCharge 0
#internalFilename spec-00000.mgf

>collision 10
47.444187 180.0
48.898735 184.0
49.332531 148.0
51.089718 152.0
59.366863 180.0
63.427296 160.0
65.076874 188.0
67.800545 172.0
68.339149 152.0
69.633507 160.0
69.784729 156.0
69.899498 152.0
71.363083 200.0
75.850021 216.0
76.20578 148.0
79.081825 212.0
81.394073 140.0
81.618683 196.0
82.612434 168.0
87.326988 144.0
87.829887 168.0
88.493294 144.0
89.452621 208.0
90.018234 152.0
102.022217 164.0
102.434746 148.0
104.062737 180.0
105.076294 172.0
106.143967 160.0
108.059517 144.0
108.227165 180.0
112.859894 232.0
113.137054 204.0
113.609634 152.0
114.95005 204.0
116.050636 1092.0
116.111671 176.0
117.052925 184.0
117.113228 188.0
119.083618 184.0
121.625145 192.0
128.064835 152.0
128.100876 156.0
130.127838 196.0
142.136932 180.0
145.343918 196.0
148.023605 304.0
149.021286 164.0
152.449554 196.0
158.966003 216.0
159.598999 172.0
161.132431 192.0
163.156342 232.0
167.161789 156.0
169.563492 160.0
169.885025 164.0
170.929459 228.0
171.013718 9360.0
171.309372 96.0
172.015594 460.0
173.009949 680.0
174.139786 236.0
176.905807 140.0
185.321075 148.0
189.02449 584.0
190.018829 204.0
191.035309 168.0
191.991058 140.0
200.52536 192.0
203.178406 164.0
212.050095 160.0
218.162445 228.0
219.738037 200.0
222.855698 220.0
223.980209 140.0
228.813568 224.0
237.94072 180.0
239.198044 204.0
240.350662 152.0
243.486526 176.0
245.615433 152.0
279.239258 148.0
292.960083 192.0
295.05545 144.0
313.21344 204.0
315.425873 196.0
316.216827 160.0
317.092957 144.0
317.221466 124.0
318.210358 180.0
318.27887 2076.0
318.334717 152.0
318.977692 164.0
319.038788 3976.0
319.207855 172.0
319.282074 332.0
320.041595 356.0
320.15332 140.0
320.283569 180.0
321.034851 768.0
321.239105 132.0
321.270294 228.0
339.040314 172.0
360.065887 176.0
1608.970459 196.0
1952.750977 192.0
1965.992188 200.0
