>compound Rosiglitazone
>formula C18H19N3O3S 
>ionization [M+H]+
>parentmass 358.123
#inchi InChI=1S/C18H19N3O3S/c1-21(16-4-2-3-9-19-16)10-11-24-14-7-5-13(6-8-14)12-15-17(22)20-18(23)25-15/h2-9,15H,10-12H2,1H3,(H,20,22,23)
#inchikey YASAKCUCGLMORW
#Ion_Source LC-ESI
#Instrument qTof
#Compound_Source Isolated
#PI Sirenas
#Data_Collector Ed Esquenazi 
#Scan -1
#Precursor_MZ 358.123
#ExactMass 0.0
#Charge 1
#CAS_Number N/A
#Pubmed_ID N/A
#Smiles N/A
#INCHI_AUX N/A
#Library_Class 3
#SpectrumID CCMSLIB00000004379
#IonMode Positive
#UpdateWorkflowName UPDATE-SINGLE-ANNOTATED-BRONZE
#LibraryQualityString Bronze
#TaskID d19310cd93df49b68e9fcbec27720eb5
##Scan# 3
#SpectrumFile Rosiglitazone.mgf
#LibraryName fda_library.mgf
#MQScore -1
#Organism fda_library
#TIC_Query 0
#RT_Query -1
#MZErrorPPM -1
#SharedPeaks 0
#MassDiff 0
#LibMZ -1
#SpecMZ 358.123
#SpecCharge 0
#internalFilename spec-00000.mgf

>collision 10
103.051025 28.54669
103.057442 17.667789
103.509933 14.70939
104.048599 297.906708
104.273689 11.76961
105.051804 37.549511
105.069855 505.755096
105.214844 25.89942
105.440422 7.8
105.495285 10.82843
105.53981 14.45
105.609406 9.888888
105.74823 24.85692
105.760597 15.42424
105.848389 6.160257
106.064667 4058.854004
106.097794 20.52083
106.109947 6.025
106.117043 6.010417
106.131348 6.880952
106.14566 17.739731
106.156975 41.537239
106.19902 6.133333
106.224304 43.02676
106.243195 21.17045
106.288574 15.38265
106.303535 6.520061
106.336021 14.7451
106.354294 12.92905
106.390236 15.62972
106.429008 7.694445
106.468582 34.722111
106.47863 6.037281
106.494102 17.129271
106.550591 44.476959
106.569016 9.671875
106.620224 17.853809
106.63678 18.286619
106.666069 15.94444
106.736717 11.85764
106.759384 10.15278
106.78524 34.98354
106.805779 9.025001
106.846245 14.15051
106.957237 11.75512
107.060448 11266.589844
107.070435 7597.801758
107.104805 34.80217
107.117477 108.454697
107.180183 29.379311
107.198425 3.669118
107.204544 60.209431
107.216438 9.797101
107.226593 15.4221
107.240524 31.11574
107.249519 17.7451
107.256065 13.78205
107.272827 10.66667
107.304535 48.40892
107.323975 16.16667
107.333191 15.85256
107.338951 12.0
107.370132 45.585491
107.390877 29.77474
107.397491 38.899261
107.406746 49.156719
107.439644 16.333839
107.453728 5.225
107.461533 2.003788
107.482643 7.875
107.507477 24.395
107.513779 16.736839
107.537407 19.513411
107.547081 35.552441
107.562477 16.755119
107.57489 35.70076
107.588593 28.54701
107.606392 17.158039
107.625252 65.95163
107.656769 59.142109
107.676697 14.96695
107.938103 22.3339
108.021873 8.208333
108.068069 8948.836914
108.111565 108.139801
108.142532 12.72429
108.169533 6.361111
108.175171 10.38294
108.219925 21.36915
108.235413 13.44079
108.248672 35.941669
108.262016 14.31317
108.270805 6.34375
108.287025 32.77047
108.307068 12.27
108.325172 6.666667
108.332413 5.675926
108.350609 18.2451
108.357925 15.57445
108.379707 17.294121
108.461136 7.013889
108.476952 5.598684
108.494896 6.740942
108.522675 34.360359
108.658508 4.481482
108.673111 20.793859
108.695564 8.595239
108.80703 21.371849
109.00695 9.675387
109.122078 10.19048
109.199234 8.813406
109.33094 24.842739
109.374191 16.151239
109.410629 23.349871
109.461449 6.339743
109.610725 2.722222
109.676407 6.160715
110.575394 2.893518
110.622246 8.081897
111.623199 7.291667
115.055298 92.626671
116.045654 24.136669
117.062454 367.38269
117.302162 20.015869
117.441704 19.352989
117.582176 8.966954
118.06472 1139.776978
118.399597 21.148809
118.428375 16.60494
118.450775 14.71795
118.496506 35.625
118.518753 6.399193
118.541512 7.242816
118.553772 14.63209
118.583038 9.340278
118.634109 13.33796
118.67408 11.15648
118.685524 7.342593
118.719933 11.16329
118.754318 5.157052
118.78022 7.675388
118.798424 5.927083
118.815453 11.3649
118.958389 13.65337
119.060234 9432.547852
119.107033 135.405304
119.12159 45.76585
119.139366 45.938259
119.167885 83.266998
119.174866 13.68709
119.182518 26.34074
119.209946 18.6199
119.224243 5.334677
119.235641 12.0119
119.244118 10.66667
119.286087 30.457319
119.302063 37.53587
119.329735 66.551064
119.342026 1.666667
119.357224 3.00463
119.37365 53.479309
119.399521 38.546181
119.407974 22.231409
119.421852 9.338235
119.441841 27.35417
119.467575 21.8519
119.50943 51.01273
119.534409 11.89815
119.556473 54.67778
119.675423 21.41428
119.688118 17.66667
119.701431 14.7274
119.711334 15.06136
119.756638 12.66667
119.844215 4.061275
119.870872 12.43678
120.067619 6828.062988
120.124245 21.02564
120.207733 29.19133
120.231575 11.19022
120.255966 11.45588
120.267326 7.340278
120.275002 7.033333
120.31636 22.78241
120.342278 51.213409
120.386581 38.59259
120.438904 16.534519
120.45816 6.775537
120.488777 15.22222
120.538353 10.67188
120.567604 17.32419
120.59565 10.17754
120.614754 19.66667
120.641228 10.89382
120.664421 21.225
120.772057 12.40752
120.802284 11.20427
120.860596 17.705601
120.918282 32.52375
120.937126 16.013889
121.005493 25.255159
121.052704 36.60714
121.075523 10491.94043
121.123001 108.0709
121.137451 54.391258
121.152893 9.714286
121.191963 55.70866
121.202583 23.629629
121.211517 5.335784
121.219101 24.190319
121.245987 4.408333
121.257484 10.00097
121.271591 20.853331
121.286827 19.89352
121.336121 27.952579
121.426094 13.33333
121.441437 15.41879
121.479759 24.234329
121.521957 22.911751
121.536369 9.666667
121.610176 13.52447
121.656532 27.09959
121.730644 15.1131
121.752213 13.07
121.825111 10.60093
121.851669 13.76066
121.950264 6.893518
122.263237 8.727273
122.586571 12.42803
122.617386 9.469594
122.781914 14.18534
123.45089 13.77778
123.570847 4.166667
124.121712 10.13333
124.746124 2.695513
129.354523 4.363636
129.557526 8.928572
132.317062 6.34543
132.452148 17.535
132.66539 2.6875
132.810028 10.0
132.962128 8.712037
133.011536 99.032532
133.065811 2021.291016
133.116837 10.61337
133.134674 13.37186
133.168793 7.625
133.206039 26.64035
133.2948 4.558333
133.372055 19.93548
133.391693 11.50347
133.423843 14.00682
133.741531 8.284091
133.781693 9.015
133.851959 18.233271
133.87027 10.5375
133.93869 11.60333
134.074997 129.271103
134.082352 20.111111
134.164261 9.667483
134.240829 7.041667
134.264297 13.77778
134.293213 12.65337
134.306427 13.48761
134.317093 35.02652
134.33815 63.447601
134.361191 15.02222
134.373428 74.63327
134.401886 78.853203
134.425354 85.29393
134.442886 6.016666
134.456268 18.686399
134.463409 24.194441
134.47554 24.01437
134.48645 118.2341
134.511017 105.155197
134.523117 18.050369
134.531235 44.000401
134.551727 70.212479
134.559448 5.391026
134.572586 67.474991
134.591873 10.71902
134.600281 27.46944
134.636124 9.960366
134.650711 68.619637
134.665436 7.935
134.712967 19.44643
134.720917 6.033602
134.757263 9.010715
134.773331 7.681667
134.790726 20.7451
134.85611 17.28264
134.914886 10.07562
134.944199 8.113095
135.026855 232.581604
135.091599 84784.34375
135.141479 106.889397
135.185837 13.02671
135.222641 29.633329
135.253494 48.46991
135.286407 82.493446
135.314575 71.670937
135.340195 50.64843
135.347809 22.52083
135.385452 92.801163
135.427673 165.2052
135.450272 41.53389
135.459915 97.008293
135.512985 25.384489
135.547028 32.14682
135.576736 68.656837
135.596024 17.33333
135.607254 53.350101
135.614746 11.03592
135.630188 54.187531
135.676956 56.769531
135.705444 145.3022
135.74324 39.614571
135.755753 31.671551
135.796249 33.93111
135.856949 24.0303
135.905151 42.785389
135.960709 30.085779
135.973572 20.67857
136.00322 27.82515
136.050323 20.92045
136.140167 36.148369
136.148865 7.866667
136.158676 21.420139
136.221008 12.73479
136.24469 18.174629
136.272705 7.746795
136.349289 65.799911
136.365402 17.10833
136.413147 6.779762
136.479126 20.66667
136.519455 14.34726
136.532394 20.45833
136.771851 12.06667
136.807877 4.891667
136.839905 12.67361
136.991638 8.044118
137.011993 12.34783
137.171982 10.96695
137.223831 10.28004
137.244141 7.49359
137.528442 25.82353
137.680923 12.41667
137.811584 13.39165
137.86438 6.696428
138.009491 5.916667
138.11441 16.790119
138.379547 4.061275
138.506439 6.00641
140.202866 8.081897
143.47226 22.408541
144.213455 9.885869
144.376373 10.72024
145.064331 118.260101
145.424026 10.56522
146.070221 121.641296
147.692276 7.510417
149.027359 63.440022
149.041687 67.666656
149.679321 9.363095
150.305634 16.349871
151.020493 86.739571
151.058578 180.265701
153.035645 16.213381
161.037064 57.98732
161.422165 10.3649
162.048157 35.912281
173.056168 74.150558
178.042191 8.962963
179.04837 45.902641
187.984512 22.743851
206.01886 23.46558
242.139938 25.726191
287.110413 11.63377
328.975006 10.34347
355.747742 9.011363
358.126617 137.882797
359.036102 3.708333
494.670135 6.027778
669.220642 13.80682
749.911682 8.166667
1103.254639 14.56019
1274.294434 22.037279
1546.56604 11.32003
