>compound Desferrioxamine E
>formula C27H48N6O9 
>ionization [M+H]+
>parentmass 601.3555535680905
#inchi InChI=1S/C27H48N6O9/c34-22-10-14-26(38)32(41)20-8-3-6-18-30-24(36)12-15-27(39)33(42)21-9-2-5-17-29-23(35)11-13-25(37)31(40)19-7-1-4-16-28-22/h40-42H,1-21H2,(H,28,34)(H,29,35)(H,30,36)
#inchikey NHKCCADZVLTPPO
#Ion_Source DI-ESI
#Instrument Hybrid FT
#Compound_Source Isolated
#PI Dorrestein/Moore
#Data_Collector Roland Kersten
#Scan -1
#Precursor_MZ 601.0
#ExactMass 600.348
#Charge 1
#CAS_Number N/A
#Pubmed_ID N/A
#Smiles N/A
#INCHI_AUX N/A
#Library_Class 3
#SpectrumID CCMSLIB00000075314
#IonMode Positive
#UpdateWorkflowName UPDATE-SINGLE-ANNOTATED-BRONZE
#LibraryQualityString Bronze
#TaskID 216f7e25eb284d139eda10f0ea06e32c
##Scan# 23
#SpectrumFile DesE_FT_601mz.mzXML
#LibraryName gnps_library.mgf
#MQScore -1
#Organism empty
#TIC_Query 0
#RT_Query -1
#MZErrorPPM -1
#SharedPeaks 0
#MassDiff 0
#LibMZ -1
#SpecMZ 601
#SpecCharge 0
#internalFilename spec-00000.mgf

>collision 10
165.083313 1321.668579
165.293442 1666.040161
166.625168 1520.837402
166.626114 1633.007446
166.760468 1602.228027
166.977676 1152.070923
167.160461 1264.002686
167.46608 1302.491943
167.910919 1500.435669
167.935577 1601.352173
168.206085 1426.788086
168.495682 1498.196655
168.592728 1867.559937
169.100677 1554.143188
169.813919 1273.041138
169.961029 1677.227783
170.219482 1307.889893
170.240875 1504.977295
170.514252 1366.284546
170.527298 1588.939819
170.952438 1284.418945
171.185089 1840.24292
171.559738 1424.291016
171.640091 1377.13501
171.740479 1314.776489
171.807724 1441.618652
171.824234 1283.782959
172.150726 1306.541626
172.373413 1436.24585
172.41806 1424.568604
172.647003 1409.354004
172.968658 1392.562012
173.043869 1397.246338
173.363464 1673.023315
173.380478 2126.989746
173.996582 1353.786743
174.462906 1734.81543
175.617798 1701.843506
175.681473 1534.094849
175.975006 1602.839844
175.977829 1378.750244
176.547562 1281.575073
176.667297 1476.273926
176.903458 1608.513062
177.036819 1813.730469
177.121262 1533.749268
177.50087 1336.21814
177.834183 1284.348389
178.045517 1279.912231
178.13652 1485.994751
178.874832 1334.248657
178.880341 1363.963379
178.887543 1561.643555
179.391739 1567.425049
179.458267 1551.453369
179.862259 1536.007935
180.108002 1527.059448
180.135406 1506.359985
180.26825 1714.630615
180.484406 2045.215454
181.335007 1322.341797
181.506866 1233.625244
181.550766 1490.558472
181.626511 1470.45752
182.278915 1487.613281
182.45282 1432.834351
183.031311 1301.109009
183.721634 1525.23999
183.906998 1499.017578
184.049652 1367.267578
184.423935 1627.112061
185.283218 1491.880127
185.337433 1400.021851
185.9272 1451.297852
186.154968 1651.343872
186.187927 1677.4104
186.411438 1419.657227
186.425034 1403.126465
186.577011 1461.460083
186.785309 2111.140381
187.318909 1669.948975
187.518204 1550.979248
187.541626 1339.209473
187.741104 1475.797363
187.902405 1659.710571
187.956833 1593.717651
188.459885 1442.126343
188.466248 1492.031616
188.852463 1561.098267
189.153305 1429.727295
189.421143 1325.678955
189.471954 1631.481201
189.523117 1191.320923
189.740341 1482.363159
189.860718 1358.070801
189.872574 1387.267212
189.885193 1384.241333
190.141266 1453.309082
191.547943 1611.967163
191.572296 1330.05896
191.77301 1556.136353
192.02063 1266.334351
192.639603 1393.187622
192.649704 1483.860352
192.791519 1553.643066
192.89711 1215.099487
192.903458 1334.038818
192.918686 1689.137451
193.310669 1615.069946
193.564102 1208.725586
193.796082 1694.893677
194.022202 1456.383179
194.024551 1860.039185
194.2173 1353.608765
194.34436 1409.783081
194.534256 1438.264771
194.626556 1533.258301
195.474396 1407.609863
195.545959 1234.095459
195.731735 1607.903198
195.771713 1287.656006
195.982086 1249.189453
196.089325 1502.033813
196.371033 1566.664917
197.019196 1281.852661
197.026642 1572.96521
197.763611 1444.658813
197.909729 1171.316284
197.961365 1405.794312
198.006622 1297.154297
198.111053 1405.873291
198.182251 1342.198975
198.236435 1320.964111
198.453232 1441.347656
198.806839 1551.858643
198.819809 1164.372803
198.856827 1555.118652
199.139328 1462.761108
199.167755 1838.13623
199.653214 1137.719727
199.653625 1134.615479
199.713348 1336.302368
200.036072 1510.258545
200.149139 1450.024658
200.637009 1286.076904
200.680405 1270.76355
200.785294 1484.327393
201.042511 1344.374268
201.50354 1274.13916
201.504456 1425.343384
201.630981 1638.772949
201.690338 2049.830811
202.490784 1246.586548
202.577118 1687.169312
202.628922 1402.98938
202.761108 1572.562622
202.960037 1454.144409
203.172226 1382.913208
203.259171 1703.571167
203.307877 1597.437744
203.497147 1404.05249
203.573639 1208.392456
203.650635 1493.006836
203.75441 1421.917236
204.343033 1254.27832
204.47168 1437.444458
204.576843 1443.942139
204.77037 1233.422363
205.431946 1499.120239
205.455444 1838.389526
205.470535 1636.591797
205.911621 1745.462769
206.078644 1568.706299
206.137283 1427.641724
206.254547 1356.226562
206.44165 1167.47876
206.468353 1327.259766
206.767685 1596.102661
207.061462 1249.324097
207.443176 1838.585083
207.589951 1440.687988
207.844208 1661.263062
207.920563 1718.877808
207.98938 1756.253662
208.262131 1378.543701
208.323257 1460.275879
208.528595 1645.624268
208.53624 1497.63208
208.639603 1479.641846
208.87027 1214.462158
209.182861 2071.801025
209.455795 1598.190063
210.160583 1527.561401
210.415726 1538.897827
210.545578 1361.054688
210.615204 1536.579224
210.898132 1387.028687
210.916473 1592.12793
210.969864 1754.100586
211.303986 1516.875366
211.427658 1480.987183
211.755737 1426.946533
212.051086 1314.098633
212.074219 1434.651733
212.256912 1390.66394
212.277481 1926.034058
212.298691 1249.270996
212.637665 1293.102417
212.638519 1345.676392
212.792603 1387.000366
213.030197 1223.309448
213.032028 1395.481812
213.065247 1500.444702
213.10466 1551.781372
213.184372 1602.072876
213.485062 1264.921509
213.75502 1396.837769
213.760101 1468.764893
213.927338 1520.831421
214.590149 1428.321411
214.634598 1965.815308
214.746445 1519.504517
214.998611 1334.095825
215.018158 1754.387573
215.054138 1413.699341
215.421494 1716.58313
215.480988 1483.271362
215.774002 1398.50415
216.823486 1887.926636
216.824661 1166.457886
216.932648 1420.890747
217.10083 1356.014526
217.236053 1103.663818
217.264069 1696.755737
217.495575 1398.976196
217.597458 1313.220215
217.650558 1792.965698
217.672882 1288.771484
218.257294 1299.187866
218.295334 1572.388184
218.692245 1339.5625
219.101456 2124.534668
219.120087 1245.3479
219.574066 1587.659546
219.595795 1330.980957
219.714996 1387.807251
220.507584 1633.952271
220.626602 1336.967651
220.639954 1272.243774
220.878693 1731.376221
220.942108 1682.889893
221.011459 1462.658569
221.507843 1379.617676
221.728409 1585.901978
221.955917 1519.659302
222.21022 1826.5802
222.282852 1313.765991
222.314774 1794.464966
222.358093 1600.714355
222.876923 1357.010498
224.195572 1374.302856
224.476624 1250.648193
224.487839 1441.779663
224.649506 1310.01001
224.801788 1568.387451
225.112701 1442.157104
225.486115 1838.417969
225.542938 1398.005493
225.623383 1284.95874
225.942566 1675.212158
226.173523 1340.641846
226.182526 1315.216675
226.403076 1479.667358
226.422058 1576.761108
226.675354 1600.250488
226.680313 1616.052612
227.434265 1509.477417
227.643204 1428.263672
227.92334 1330.777222
228.663147 1450.345459
229.003693 1573.993408
229.012894 1429.175415
229.164978 1388.301514
230.111877 1504.574707
230.262085 1396.731689
230.696106 1431.686523
230.795242 1309.791626
231.159164 1369.386108
231.358154 1477.927856
231.59285 2156.459473
231.643753 1660.747681
231.842224 1229.592407
232.411057 1244.938477
232.532104 1591.807251
232.91658 1311.220093
233.450043 1392.185181
233.475922 1280.646118
233.724228 1544.607178
234.01886 1714.106934
234.150711 1488.977661
234.377014 1926.153931
234.46492 1442.088989
234.854767 1718.940796
234.903671 1313.835571
234.988464 1502.151978
235.660034 1383.22522
236.192032 1584.310913
236.712372 1528.505859
236.881348 1544.978149
236.897583 1324.542725
237.161926 1524.335327
237.269485 1405.636963
237.428864 1271.438843
237.783142 1380.783081
237.95575 1460.938965
239.42897 1519.408936
239.744308 1764.210327
239.856537 1452.566284
240.106339 1318.724976
240.72879 1489.989014
240.956711 1800.771729
240.995438 1317.261719
241.116028 1578.184448
242.010834 1440.022461
242.079346 1433.885132
242.350891 1468.733765
242.445251 1608.109131
242.890594 1405.06958
243.545044 1513.801758
243.553665 1543.410034
243.617554 1130.163818
243.744202 1394.849365
244.058823 1640.944824
244.193527 1414.475586
244.428116 1478.275391
244.543686 1936.561279
244.704544 1375.248413
244.723343 1288.793213
244.874481 1551.884155
244.982895 1316.954712
244.990051 1471.354004
245.254883 1127.365234
245.505997 1441.08252
246.212708 1509.904785
246.371017 1450.923706
246.954712 1359.849609
247.09407 1339.188721
247.210373 1224.383911
247.211334 1087.473755
247.291275 1641.780029
247.354401 1461.71521
247.585251 1521.143677
247.98587 1325.243042
248.197479 1384.969849
248.277374 1489.794067
248.429977 1418.87561
248.544449 1177.998535
248.58963 1529.845093
248.612732 1543.330933
248.821686 1357.261108
249.068115 1381.859009
249.133331 1212.3573
249.171936 1283.739868
249.182968 1659.739624
249.544189 1464.793701
249.560608 1448.132812
249.827164 1282.647461
250.003998 1207.243042
250.282608 1448.501343
250.463013 1350.380127
250.741394 1517.151367
250.907959 1343.625854
251.319626 1604.916504
251.421402 1473.3302
252.380676 1470.529297
252.419861 1397.305664
252.527527 1498.875977
252.665787 1473.388672
252.899567 1508.945435
253.106705 1671.03186
253.113998 1427.367798
253.228638 1303.0354
253.975586 1399.315918
254.046371 1636.877686
254.129456 1720.033203
254.132172 1620.346069
254.181229 1659.915771
254.334412 2132.844482
254.361542 1486.614746
254.77597 1348.232422
254.88031 1870.061279
255.363205 1270.806519
255.402969 1554.882324
255.57515 1394.112671
255.941864 1474.071533
255.942352 1480.760132
256.379181 1525.449829
256.508301 1705.727539
256.662384 1460.314941
256.711395 1575.857178
257.008209 1702.186523
257.148071 1326.139038
257.289673 1560.77356
257.317749 1467.66626
257.442291 1141.094482
257.62973 1193.490112
257.7341 1498.686768
259.109161 1284.172974
259.256042 1712.334473
259.698334 1473.779663
259.715393 1319.416504
259.891571 1443.783203
260.296631 1275.799561
260.557587 1689.465942
260.58783 1406.384766
260.588898 1191.82666
260.626038 1560.873047
260.754395 1432.062134
260.773041 1336.427612
260.777679 1315.984741
260.811005 1270.153076
260.854462 1586.162964
261.410187 1393.447754
262.80127 1767.040771
262.942505 1685.240845
263.560089 1337.856689
264.037354 1547.980347
264.076324 1435.449097
264.165924 1646.983765
264.758392 1316.795044
265.38092 1765.239868
265.55191 1185.767944
265.992615 1477.377808
266.107452 1868.216309
266.366608 1637.704224
267.042633 1412.373047
267.417114 1300.91333
267.668549 1390.959595
267.68692 1327.761108
268.036713 1311.64563
268.447662 1343.095703
268.638702 1360.470459
268.913025 1171.223389
269.016144 1290.210449
269.071442 1465.062378
269.110565 1245.661865
269.523163 1704.490845
269.710632 1483.935425
269.869537 1557.892578
270.110443 1703.182495
270.132935 1374.22229
270.365479 1229.523071
270.788452 1474.675537
272.256012 1347.224731
272.418121 1512.103638
272.606415 1397.194214
272.90332 1181.832397
273.483765 1501.549438
273.960846 1560.41687
274.205109 1572.35791
274.403809 1856.411865
274.492523 1402.804688
274.718872 1347.552734
274.775513 1310.740112
274.837769 1551.009888
275.081146 1298.243774
275.208282 1406.36792
275.50885 1496.094849
276.036377 1702.543335
276.078979 1747.863159
276.148865 1409.782227
276.205292 1421.979736
276.242767 1315.609497
276.518036 1505.822754
276.809601 1359.860352
276.965118 1570.196045
277.099731 1185.50769
277.467621 1420.728027
277.953857 1733.906982
278.029205 1359.17749
278.278595 1776.045044
279.13681 1618.617798
279.249634 1357.203125
279.486023 1418.001343
279.75061 1828.119995
279.935486 1449.65332
279.998749 1555.586914
280.02774 1640.581787
280.126129 1191.544189
280.12674 1198.952515
280.24231 1376.295898
280.437958 1292.829834
280.933228 1395.439697
281.240509 1539.175171
281.272461 1177.140503
281.27533 1448.714722
282.161346 1786.737915
282.37851 1381.276489
282.406525 1482.389526
282.903748 1865.573608
283.127869 2220.407471
283.129089 3860.92627
284.394928 1393.796387
284.41687 1372.678345
284.662811 1595.277954
285.128052 1205.099609
285.174774 1320.906006
285.32251 1691.406738
285.407349 1349.645386
285.753418 1408.456177
286.41098 1774.412964
286.503143 1469.191895
286.958832 1472.775757
287.029144 1380.546753
287.733856 1765.755493
288.704315 1347.960693
288.843475 1578.759033
289.169342 1519.513184
289.382507 1539.206299
289.390656 1437.15979
289.794128 1531.334717
289.848114 1166.312256
290.519226 1425.021606
291.246033 1961.956543
291.332397 1282.56311
291.55365 1508.792236
292.024323 1511.705688
292.312927 1613.488037
292.92041 1343.234131
293.544678 1486.767334
294.018585 1340.806274
294.202698 1416.053223
294.55603 1443.570312
294.722626 1659.456909
294.900848 1520.597046
294.919464 1573.898193
295.37796 1390.092407
295.45813 1744.946411
295.931671 1811.995605
296.263733 1436.179688
296.480255 1517.792236
296.581787 1491.295166
296.657928 1350.727905
296.72052 1508.237915
297.536713 1258.655396
297.604919 1193.914795
298.14502 1809.050903
298.434204 1592.086304
298.794281 1641.282959
299.210266 1359.063721
299.673706 1326.631958
299.974335 1285.423584
300.121399 1652.216675
300.154419 1525.780884
300.207031 1330.79834
300.217621 1509.103638
300.316315 1373.219604
300.530945 1460.612915
300.657501 1392.706787
301.139587 2738.56543
301.656982 1413.468262
302.14801 1245.167725
303.117676 1282.632568
303.154205 1372.883667
303.574707 1345.029907
304.358521 1331.799683
306.002136 1624.499756
306.799713 1446.71814
306.953796 1680.45105
307.586792 1749.306763
308.754272 1825.253662
310.566223 1211.584839
310.710968 1749.425171
311.47821 1340.14978
311.821716 1451.114014
311.873718 1589.612915
312.173889 1461.500366
312.26712 1581.063599
312.470306 1475.935791
313.01355 1498.641968
313.112549 1365.419556
313.322327 1318.514771
313.741333 1389.483521
313.911316 1568.758545
313.918427 1554.830078
314.166321 1321.263306
314.307526 1395.19751
315.927002 1771.119385
316.448029 1628.938232
318.486969 1704.863525
318.509827 1832.175293
319.344299 1688.651123
320.605438 1483.43042
320.620636 1334.381226
320.900208 1385.798218
321.125916 1995.585083
321.203766 1433.502441
322.321503 1630.385254
322.701294 1715.134399
323.233826 1739.521729
324.744141 1577.539185
324.747314 1311.960205
325.312164 1730.453247
325.485596 1636.914307
325.499451 1486.640625
325.55423 1478.211914
326.175629 1475.329224
326.322479 1628.911255
326.974823 1349.064331
328.426239 1620.695679
328.5513 1546.232544
328.59552 1652.859131
328.936646 1242.148438
329.126068 1330.204346
329.144012 1931.626465
329.19751 1775.708984
329.510773 1531.886963
329.841919 1248.196777
330.315857 1314.59314
330.770355 1373.96521
330.84906 1580.754517
331.28833 1725.999023
332.288025 1321.096558
332.923676 1352.302612
334.574463 1281.070068
337.4599 1551.866089
337.530396 1588.858887
337.913422 1393.196411
338.360962 1518.0979
338.474487 1414.415527
338.786346 1550.396606
338.788818 1388.978394
339.338928 1545.039795
339.636108 1618.364502
340.566925 1596.408569
340.771332 1452.35437
341.057007 1782.553223
341.328247 1472.892212
341.477539 1400.28064
341.659973 1491.700928
341.925354 1837.912231
342.393341 1690.785156
342.609711 1736.609497
342.766754 1278.964111
343.447174 1389.136597
343.664825 1558.191162
344.018219 1570.685059
344.137299 1470.591309
344.275879 1422.627197
345.023499 1644.031128
345.490845 1678.480713
345.618652 1462.250488
345.915741 1918.642822
345.995514 1362.789062
346.59375 1320.777832
346.687225 1810.745483
348.104126 1483.796265
348.398071 1493.602783
348.528656 1498.794067
348.735016 1513.606323
348.736755 1233.421875
349.447327 1515.707031
350.720062 1457.753296
351.705078 1396.890259
352.108124 1543.93103
353.611969 1435.351196
354.03598 1416.691772
354.106171 1493.171875
354.81958 1716.694458
356.020752 1463.922852
356.853119 1641.644775
356.866547 1780.440063
357.09375 1441.067017
357.537903 1357.915039
357.583801 1369.581543
358.376099 1982.63855
358.47287 1806.964233
360.392242 1597.455811
360.476807 1549.673828
361.923706 1314.564087
362.036926 1601.720337
362.112274 1277.317017
362.188965 1540.715576
362.317596 1599.338989
362.378937 1294.725952
362.826385 1444.838501
362.879181 1850.747681
363.220947 2007.416504
363.636566 1784.475464
364.124817 1217.92041
364.667603 1459.44104
365.917084 1519.439209
366.164948 1530.192627
366.329254 1409.802246
366.561615 1711.188477
367.055237 1439.477783
367.061371 1511.961792
367.235474 1370.583374
368.252014 1497.063354
368.411041 1337.309082
368.685669 1504.219727
369.519043 1574.166626
369.599335 1408.197876
369.707336 1619.008667
373.251129 1336.25293
373.497101 1587.609253
374.082336 1626.825684
374.311707 1425.710327
374.528625 1557.232422
375.643372 1604.293091
376.946991 1412.865234
377.895111 1475.681274
378.795258 1188.562134
379.480347 1279.415039
379.735229 1442.983887
379.924835 1429.361572
380.265411 1622.060303
381.572021 1671.382324
381.709717 1763.520264
381.771393 2015.879272
382.402649 1494.897949
383.867004 1290.063354
383.965485 1377.882935
384.259247 1527.468628
384.810822 1284.816406
385.509247 1505.175659
385.912262 1452.429199
386.063873 1683.730835
386.565247 1690.493042
386.895325 1788.804688
387.242828 1661.577637
388.110107 1455.521606
388.850494 1402.615112
389.707916 1959.958008
390.052155 1389.220459
390.773224 1495.773438
391.053772 1621.888062
392.319397 1471.397705
392.988281 1580.661621
394.262604 1300.189819
394.670258 1603.519531
395.778168 1707.428711
395.84314 1860.11499
396.004303 1320.812866
396.007874 1242.009521
396.12915 1384.203613
396.822662 1514.864136
397.042969 1517.990601
397.640656 1327.132568
398.375732 1432.416748
398.446198 1542.924194
399.147583 1569.290649
401.162048 1840.862427
401.232727 12062.995117
401.239624 79587.226562
401.591064 1470.08667
402.34613 2035.987183
403.758972 1721.620728
403.764587 1642.305054
404.018402 1869.646484
405.425415 1579.640015
406.240326 1572.541138
407.965271 1640.250244
410.526489 1458.983398
410.724365 1581.993286
411.029144 1549.578735
412.453705 1632.577148
413.635956 1192.713379
413.638641 1140.849976
416.172211 1706.285034
417.361969 1283.647095
417.409332 1413.57605
419.190399 1319.373169
419.250519 2209.882324
419.896912 1890.243286
420.638 1476.042236
420.652161 1587.16394
421.104218 1488.485474
421.473419 1551.400513
421.495117 1512.950317
422.000183 1629.708252
424.284119 1509.207397
424.602661 1316.94519
426.096039 1574.845215
426.664215 1406.204224
428.505096 1310.000122
428.920624 1805.593506
429.030426 1433.528564
430.209381 1321.286621
430.73938 1557.944092
430.752777 1163.565308
431.851074 1443.798584
432.589478 1472.792236
434.369965 1486.056641
435.318573 1989.976074
436.204437 1616.691162
436.454071 1469.316772
436.900604 1440.993286
436.910889 1658.732422
437.06311 1529.623779
437.746674 1694.485229
440.108398 1858.713501
440.723236 1400.986084
441.305756 1608.508423
441.454193 1337.630615
442.298737 1385.520142
444.331299 1344.229004
444.678467 1283.972168
444.890228 1292.311401
445.076477 1292.23877
445.444366 1770.671997
445.621399 1481.617798
446.177948 1549.713745
446.479919 1465.833374
446.746429 1765.783447
448.940796 1478.525269
449.379486 1452.709229
449.845093 1617.553467
453.296173 1558.370972
453.684082 2225.27124
454.194 1448.214966
454.570679 1452.756104
454.868408 1841.636841
455.464722 1589.442505
455.733276 1365.25293
457.042755 1442.875732
457.641968 1658.25769
458.574799 2116.934082
458.672913 1319.749146
458.97641 1830.198364
459.110565 1436.171265
459.20105 1347.236694
459.994965 1471.80835
461.179138 1750.046509
462.409454 1624.125488
462.446686 1485.850586
463.141846 2242.035889
463.855438 1292.323853
464.840637 1582.490234
465.343506 2049.812744
468.942566 2070.556641
469.287903 1821.907227
470.016754 1398.540039
471.073914 1370.507812
471.171875 1538.99585
472.44928 1608.883789
475.906067 1832.666992
476.258484 1679.856689
476.920929 1695.182617
477.073547 1421.384277
477.186157 1463.46582
477.608124 1319.613647
477.63092 1314.855957
478.002441 1482.054932
478.937256 1415.448608
481.459625 1368.154541
482.271606 1573.393921
482.468994 1963.716431
482.919098 1383.410034
483.078827 1494.282471
483.245239 2838.759521
483.590912 1781.846069
484.629211 1566.367188
486.512909 2178.661377
486.854279 1459.440186
487.112457 1525.125
487.224823 1644.246704
487.60849 1523.560669
488.300049 1655.621582
488.503754 1453.300415
488.684418 1367.036011
491.602417 1610.414185
491.846008 1935.812378
492.190918 2018.585205
492.399994 1542.658081
493.198883 1319.542236
495.351257 1702.339355
496.080627 1808.914551
496.242828 1353.240479
496.407013 1518.745483
498.261475 2305.750732
499.648285 1589.73938
499.731873 1417.864136
500.303955 1545.061279
500.348602 1350.519409
500.858093 1462.920898
501.815704 1368.307739
503.978577 1461.268066
505.685913 1311.816162
506.97403 1641.452148
507.229126 1971.546387
508.351624 1606.937012
509.958405 1627.148193
510.293243 1513.348267
512.12854 1675.604858
512.609558 1353.69104
513.124573 1623.15332
514.814026 1385.132324
515.319946 1421.228638
517.553711 1347.494507
519.187866 1843.964233
520.13092 1602.74353
520.560425 1706.947388
520.65332 1448.468872
523.709717 1387.922363
524.485413 1489.45752
525.419312 1382.686768
526.347351 1935.916016
526.395081 2082.713867
529.338074 1465.57605
529.645691 1429.464355
530.246399 1546.539307
531.218872 1409.866821
531.376221 1441.034424
531.456116 1592.887207
531.590515 1544.158447
535.116821 1727.716064
535.14093 1901.727173
536.249329 3161.752686
536.261719 4565.32666
537.559753 1877.813599
537.81488 1550.203003
537.858948 1884.748535
537.876892 1569.947144
538.303101 1458.597412
538.6521 1717.279297
539.953369 1494.132568
540.68042 1489.885132
540.835266 1721.005127
541.182983 1393.817017
541.401367 1838.189819
542.121582 1317.167847
543.355835 1506.298218
546.386719 1671.501953
546.394653 1420.119751
547.291504 1370.888794
547.361267 1661.594604
550.215027 1393.59314
550.747131 2254.929688
550.827698 1330.385498
550.972412 1457.227295
550.983459 1793.245239
551.876343 1740.721558
552.396729 1762.334961
553.645142 1447.784058
556.361572 1862.043213
557.602478 1761.432495
558.606873 1664.280151
560.35675 1602.789673
560.369751 2776.408447
560.723022 1711.372803
562.049683 1748.224121
562.835876 1590.5177
563.310669 2501.074463
563.329651 1678.182373
564.616516 1531.661987
564.925232 1222.358765
566.546753 1464.357422
567.099915 2095.537842
569.809509 2622.103027
569.821594 3177.619141
569.83075 2272.92749
571.840759 1799.343994
571.885193 1445.71875
572.104248 2525.289795
572.344421 1345.511597
573.129578 3072.398682
573.349548 4075.92041
573.357605 3852.980225
573.371338 6603.244629
573.388062 9686.623047
573.702148 1357.155396
573.945007 2038.648926
574.244202 1487.48877
574.321594 1515.732666
574.378418 1226.283813
574.480835 2042.846069
574.620667 1857.879517
574.637756 2827.3479
574.765869 1751.910889
575.743286 1951.719971
576.204529 2133.749268
576.251892 1584.834839
577.026855 1473.362915
577.293152 1487.413818
578.184326 1378.213745
579.545288 1807.036743
579.79071 1618.702026
580.106567 1430.390381
580.974487 1629.771729
582.304321 1368.17395
582.738403 1365.138672
582.991516 1362.980713
583.336731 1409.951172
583.796021 2241.04541
583.81842 2315.874756
583.830994 2050.484131
584.374878 2178.480713
584.853088 2063.77832
585.112061 1495.625
585.735413 1593.861694
585.810791 1388.601074
586.636414 1795.12793
586.745972 2003.924683
586.895081 1426.597656
587.289734 2610.827393
588.470154 1496.466064
589.011902 2214.479248
589.111206 1282.975952
589.114014 1313.536743
592.032959 2031.613525
593.529663 1589.709717
593.788391 1256.743042
593.929504 1844.764771
594.598999 3836.104004
594.62793 2435.631348
594.645752 1883.612183
594.8255 2025.432129
595.560059 1270.353027
595.735535 2187.659424
595.892029 1573.118042
596.297363 1478.98291
597.09967 3343.638428
597.11792 3504.972412
598.190491 3426.083252
598.200195 3172.851318
598.20752 2430.3125
598.227539 5432.561035
598.496155 2187.651855
599.78302 1561.729614
601.06012 1583.672974
601.54541 1373.398926
601.906189 1419.881836
602.151245 1648.702637
603.268982 1662.287476
603.53064 1949.722046
603.655273 1818.834595
604.413696 2703.431152
604.427185 2299.881592
605.587952 1349.07019
605.80365 1901.449219
605.821472 1503.012207
606.120911 1956.220093
606.939758 1921.146118
608.129944 1682.560791
608.442139 1651.075195
610.252625 1567.721069
611.307373 1521.34729
611.325745 2400.726318
611.339844 2607.378662
611.388428 1524.691895
613.661438 1650.028809
613.744507 1483.9552
614.453003 1529.125244
614.721802 1438.960938
615.129272 2373.185059
616.417969 1753.607056
616.748474 1352.498169
617.09668 1589.242188
617.472168 3972.65625
617.492676 3420.200928
617.505249 1688.502686
618.987793 5355.259766
619.001953 3843.103027
619.012756 1958.448242
620.777344 1781.562012
621.508118 1337.455322
621.678528 1543.832275
621.899475 1727.517822
622.595032 4474.355469
622.607056 4281.542969
623.952759 1844.920044
625.557129 1620.026245
625.580566 1653.202271
625.636108 1778.943237
626.537537 1973.498413
627.141968 1365.182129
628.451172 1591.72998
629.52002 1490.211914
629.563721 3382.877686
629.580383 4453.009766
629.602051 8993.581055
629.936035 1952.57373
630.068115 1651.163818
630.542786 2080.156006
630.559509 1834.283813
630.839539 2223.590088
630.910156 1724.690063
631.152893 6502.299805
631.169739 4522.12207
631.179077 2375.353027
632.602112 1813.010376
633.849487 1865.715576
634.133118 1411.885132
634.905334 1606.85022
636.50946 1930.885254
636.983276 1488.813721
637.819214 1526.188721
637.882507 1362.110718
638.108032 1703.524048
639.142456 1400.085327
639.955811 1627.352783
640.12262 1701.619263
642.155396 2615.121826
642.852356 4852.132812
642.869385 5326.34082
643.158752 1875.730225
643.169983 2311.86792
643.301819 1288.061279
643.391235 1760.674072
643.512939 1428.309937
645.164368 1439.458618
645.458008 1623.235596
645.80957 2230.819336
645.881714 1496.50293
647.057922 2290.693115
647.386169 3102.899902
647.402222 1914.466064
649.11731 1471.243774
651.33075 3347.067139
651.589233 1702.042725
651.72876 1416.933838
651.826965 1654.3573
652.466187 1326.706665
652.630615 2205.186523
655.268433 2884.324219
655.286072 1216.988525
655.299377 2485.244385
655.694214 1429.420898
655.92627 2095.181152
656.173035 1590.827026
656.705444 1589.327148
656.971802 2020.366211
657.066101 2007.810059
658.094238 1688.534546
658.641296 1716.706177
659.936401 2334.63916
660.014282 1589.810547
660.023315 1440.165405
660.037903 2760.811035
660.778809 1906.494141
661.919861 1516.534668
662.564819 1877.003784
664.205261 1552.436035
666.688843 1825.855957
668.287598 1932.537109
668.631042 2902.619141
668.918579 2271.4104
671.45105 1349.51416
675.555847 1371.076294
676.406738 1608.89856
677.436157 1840.260132
677.474854 2077.542236
677.766113 1501.82251
677.803528 1964.709351
678.843811 1577.739014
679.5401 1473.906006
680.309326 1621.45752
681.768982 1257.029541
682.362427 1634.682373
682.484375 1558.138428
683.158752 3432.70874
683.182556 4171.18457
683.357117 1216.489746
683.835327 1425.83606
684.011963 1544.854004
684.765686 1738.432251
686.894653 1968.973633
687.242432 1872.826294
687.939453 1645.312256
688.291931 2201.117432
689.459534 1766.625244
690.695984 1578.067505
692.558838 1535.784424
692.927246 1429.42041
693.958435 1925.285767
695.776489 1675.831665
696.134583 1494.057373
696.567017 5761.343262
696.584656 4779.162109
696.939636 7824.946777
696.959351 5134.411133
696.97168 2233.267822
697.169067 1840.031616
698.01001 1823.505615
698.033875 2792.206299
701.095642 1572.200073
701.885071 1685.670288
702.88739 1680.590698
704.747314 1533.789551
705.249268 1663.750488
705.576843 1646.652954
710.838013 1849.231079
711.005798 1835.364746
711.234924 2952.402832
711.25 2404.934082
712.231506 1464.33667
713.077393 1759.039795
713.483704 1698.226562
713.546814 1401.107788
715.994995 1513.268799
717.684937 1465.058838
718.203979 1754.353882
719.931458 2002.846924
720.459839 1472.206055
721.22644 3410.092041
721.391357 1521.981689
722.023254 2808.557861
722.044434 2824.430664
723.032104 1561.748535
724.230286 1440.354126
724.637695 1696.895386
725.501953 1343.385742
725.613037 1568.0802
726.527039 1887.174438
726.782654 1532.181396
729.527588 1683.854248
731.063477 1663.133301
733.008789 1500.090942
736.932983 1887.850098
738.450623 1452.669678
740.2052 1348.205566
741.473022 1455.696655
742.498169 6403.294922
742.518433 2428.51709
742.771484 2360.952881
742.854248 1541.897461
743.348877 7373.564941
743.36792 6505.953613
745.658813 1532.173706
746.024719 1542.297607
746.712952 2446.641846
747.625732 1426.634277
748.359985 1693.063843
748.546448 1334.741211
749.304993 1589.166138
750.436035 1602.469604
751.296082 1485.31897
751.770508 1259.93042
751.887329 1638.62439
754.044312 1643.45874
754.085693 1532.853638
755.557861 1872.457764
758.009521 1556.672607
759.043762 2304.971924
760.075439 3795.036865
760.095093 3200.531982
760.182678 1491.711182
762.035706 1589.443604
763.171326 1880.467773
764.462891 2189.304932
764.483276 1477.264893
764.499451 2753.956055
764.894836 1290.524414
765.518616 2681.564941
767.089844 1783.048218
767.422791 2047.716187
769.794312 1272.362183
769.996338 1948.847656
771.604614 1642.318115
773.02655 1385.02124
775.180725 1702.493408
775.528564 1577.462402
776.235718 1694.484741
776.386719 1699.315552
777.109192 1991.846802
777.996521 1979.912231
779.629211 1569.778198
782.147522 1664.322266
784.256531 1269.75769
786.38562 1565.413574
787.886902 1596.290894
788.71228 1587.022583
790.238647 1704.322021
790.757812 1896.009888
791.079529 2075.348633
791.52301 2219.267578
792.882751 2085.276611
793.579285 1439.453979
795.403748 4768.665527
795.424561 3193.512451
796.83197 1472.393066
797.467102 1531.907959
798.670593 1555.314819
800.87146 1601.539307
800.937622 1998.91687
801.238892 1662.552246
801.573486 1469.687988
801.676636 1521.939087
801.861938 6047.623535
801.882446 2536.047852
801.895325 1683.275635
805.21698 1356.289795
806.01355 1906.958252
807.27533 1946.826782
808.028015 1571.81311
809.484558 1968.93335
810.825256 1674.103271
811.487366 1924.596069
812.011597 2708.797607
813.432861 1864.115479
816.308105 1671.638794
816.467102 1313.12854
819.017944 2168.535156
819.46228 1844.001099
819.50824 1450.576172
819.825745 1684.78772
822.396973 1937.032593
823.893005 1628.286133
827.65863 1462.821533
828.909241 1623.910645
829.300659 2939.075684
830.132385 1408.636475
830.565002 2373.021973
830.781677 2578.032471
831.722839 1965.587646
834.047546 1851.490479
838.526123 1517.431274
841.709534 2807.254883
842.374634 2267.811035
843.015564 1435.302368
844.537781 1745.177856
848.400146 2068.924805
848.463196 2046.9375
851.625793 1612.658569
857.725891 1316.544067
858.269653 1868.244263
858.677124 1695.493164
859.5177 1747.127319
860.371948 1635.130615
861.725281 2166.002441
867.428955 1624.013428
868.442078 1929.328613
868.827209 2045.868164
868.841309 1914.770752
869.11676 1629.828003
870.858276 2141.547119
871.537354 5776.483398
871.563416 3429.838379
872.936707 1426.736572
873.963196 1849.839111
875.909546 1637.947388
878.237671 1507.192749
879.295715 5275.938477
879.323486 2536.174316
879.533936 2153.129883
879.89447 1568.896729
880.008118 1969.502197
880.469238 2415.578369
884.527527 1521.195801
887.845032 1474.740845
888.314697 1631.085693
889.457458 1335.551392
890.084045 2270.21167
890.484314 1622.682251
891.690979 1942.541626
894.893188 1657.643921
895.850342 2926.1604
898.635986 1525.30481
900.959473 1795.055664
904.055786 1745.643433
905.124451 1607.667114
908.160217 1920.379028
909.216614 1605.430908
911.767029 2351.813721
913.875122 1925.30603
918.241638 1691.682739
920.217651 1449.15332
926.936218 1618.295166
927.158569 1967.13562
929.07666 2567.939697
929.640381 1816.546631
930.242432 2296.039062
936.334595 1697.725464
937.061096 3940.013184
937.474304 1477.441162
939.090698 1435.981079
939.549744 1798.275757
939.968384 1963.132568
940.120483 1832.53418
943.947998 1578.428955
946.028381 1710.958862
946.189819 1551.894531
949.476868 1573.360229
950.697571 1403.265137
951.681458 1694.130615
952.293823 1278.787842
952.304077 1497.224731
955.179565 4918.984375
958.905884 1829.94751
961.313049 1322.692139
961.695862 1282.262329
963.012085 1526.24292
964.845032 2056.207275
969.277588 1798.279419
971.182739 1969.370361
972.277344 1720.309448
972.665344 1777.454956
973.268494 1657.789429
973.790955 1744.224854
973.997803 1751.506836
974.019897 1643.485352
974.992432 1552.287964
976.05835 1735.116333
976.531189 2269.392822
977.1604 1811.02063
977.576782 1855.459229
982.395569 1334.317871
986.335876 1605.924683
987.864563 2241.759521
990.917358 1640.112793
991.034241 1559.245728
994.931946 1752.120483
996.742493 1912.175415
998.820068 2341.657227
1001.192139 2354.294678
1002.935791 2477.210938
1003.395447 1810.022705
1005.502747 1668.756226
1007.167969 1637.005859
1007.205078 1668.102661
1008.151794 1585.183228
1008.183228 1562.626709
1008.383789 1540.432983
1012.434937 1909.883179
1012.76825 1502.623413
1014.208496 1633.547119
1015.34259 1450.334351
1017.877625 2182.989014
1018.977173 1939.206909
1019.789185 1337.835449
1020.5578 1608.581177
1022.414368 1708.131226
1022.516541 1547.500854
1022.923828 3493.080566
1022.952759 2991.689941
1023.411316 1373.893921
1023.427612 1728.859863
1023.733215 1934.249268
1023.781799 1837.759033
1026.291382 1706.642334
1031.608521 1343.112549
1034.138794 1659.385742
1035.475098 2038.390991
1035.703857 1747.211304
1035.763428 2445.330078
1036.977661 1744.791626
1043.915771 2399.020264
1044.517578 2124.72168
1045.850342 1366.632446
1047.40271 1962.096436
1048.111816 2102.906982
1049.065918 1697.404663
1054.25061 1836.489014
1055.353516 1476.447754
1055.665894 1269.072754
1055.69043 1590.443604
1055.729736 1986.127808
1056.573608 1958.225342
1056.951294 1913.726685
1057.350586 1582.747559
1059.077759 1695.011719
1059.364014 1822.201416
1060.157837 1711.546997
1072.976685 1942.225708
1075.783081 1865.658203
1077.033813 2331.781738
1077.858276 1611.145874
1079.717773 1586.134033
1082.860596 1595.740234
1084.775146 1643.426392
1087.414429 2106.263672
1088.459229 1461.565796
1092.544922 1602.909424
1094.347656 1889.138672
1096.278198 1585.300415
1096.338379 1862.828735
1097.196045 2018.497803
1097.854004 2410.375488
1100.16394 1528.457275
1102.883545 2245.499756
1109.533081 1733.658813
1110.463501 2064.942383
1110.501953 2152.227783
1112.607788 1752.302856
1114.374268 2832.315674
1114.755493 1377.454346
1115.324097 1836.268433
1118.448975 1835.461792
1118.887329 1528.503418
1121.645874 1592.971313
1122.50708 2087.703125
1122.991089 1377.328125
1123.689697 1389.588623
1125.90686 1832.777832
1127.901489 1769.046265
1131.115601 1447.613159
1133.980591 1490.325439
1136.163574 1799.894165
1136.931274 1599.027588
1137.38208 2022.668335
1144.153198 1699.815308
1149.363281 1773.518555
1153.4021 1478.393677
1154.671753 1742.607788
1155.225952 1726.426758
1156.346924 1601.915527
1160.025391 1792.536743
1160.730591 2182.026611
1161.390381 1769.186157
1162.22998 1947.95105
1162.421631 1584.526245
1164.036011 1830.884033
1167.672974 1447.97583
1168.63501 2174.324707
1171.24353 1576.505615
1172.570312 1926.305176
1173.304077 1968.811646
1173.470581 1578.739624
1173.761719 2131.011475
1173.791626 2264.081299
1175.820312 1575.52002
1176.350586 2244.416504
1176.562988 1805.466187
1176.773193 1768.473145
1179.260742 1515.166016
1179.917969 1823.1604
1182.281128 1622.089233
1182.96228 1831.62207
1183.521729 1675.643677
1184.873901 1403.443481
1186.804688 1996.764771
1189.162964 1727.23877
1191.64209 1624.436157
1193.08667 8867.399414
1193.13147 4451.77002
1195.692139 1456.633057
