>compound pateamine
>formula C31H45N3O4S 
>ionization [M+H]+
>parentmass 556.3203543720906
#inchi InChI=1S/C31H45N3O4S/c1-21(13-14-34(6)7)11-12-23(3)16-27-19-29-33-28(20-39-29)24(4)17-26(32)18-31(36)37-25(5)15-22(2)9-8-10-30(35)38-27/h8-13,16,20,24-27H,14-15,17-19,32H2,1-7H3/b10-8-,12-11+,21-13+,22-9+,23-16+/t24-,25-,26+,27+/m0/s1
#inchikey DSPNTLCJTJBXTD
#Ion_Source DI-ESI
#Instrument qTof
#Compound_Source Isolated
#PI Keyzers
#Data_Collector Keyzers
#Scan -1
#Precursor_MZ 556.32
#ExactMass 555.313
#Charge 1
#CAS_Number 139220-18-1
#Pubmed_ID N/A
#Smiles N/A
#INCHI_AUX N/A
#Library_Class 3
#SpectrumID CCMSLIB00000007053
#IonMode Positive
#UpdateWorkflowName UPDATE-SINGLE-ANNOTATED-BRONZE
#LibraryQualityString Bronze
#TaskID 76b66bf1ccd04cec9993212b36387ea3
##Scan# 3
#SpectrumFile pateamine_pos_MSMS_single_charge_001.mgf
#LibraryName gnps_library.mgf
#MQScore -1
#Organism test_rob_keyzers
#TIC_Query 0
#RT_Query -1
#MZErrorPPM -1
#SharedPeaks 0
#MassDiff 0
#LibMZ -1
#SpecMZ 556.32
#SpecCharge 0
#internalFilename spec-00000.mgf

>collision 10
41.039787 94.739754
42.032883 100.6036
43.018131 83.004311
43.040363 89.625
43.053619 65.625
44.049679 267.761902
46.064655 431.892212
51.021404 135.036804
57.071522 123.657898
57.985275 99.408333
58.06572 3693.60498
67.052574 1165.409058
69.032875 90.346153
69.069305 250.334595
69.608917 58.907261
70.065781 337.793915
71.07737 149.365295
72.08007 439.236694
73.04644 899.639221
77.039215 100.526604
79.055771 998.112976
80.051773 534.876221
81.070068 1128.177002
82.069099 221.969803
83.083733 105.0
84.045105 190.753906
84.083603 332.779388
88.02063 70.840912
88.043266 88.052643
88.074356 85.117653
91.055702 918.339722
93.069908 360.118011
94.06588 579.527405
95.082298 391.422211
96.082893 216.066696
98.001549 59.038792
98.060051 176.337997
98.096397 1008.25
99.035645 175.1716
100.040993 79.337959
102.051208 200.298599
104.1073 106.451599
105.067711 938.817322
106.067749 205.8918
107.084976 7573.24707
107.180748 115.113602
107.339783 57.375
107.963707 122.979698
108.080925 2682.758057
109.100777 903.818604
109.600281 55.084461
110.104942 118.138496
111.043961 236.789505
111.081367 180.686401
111.099892 136.686005
112.019753 237.035706
112.108788 492.125
114.035316 147.219498
115.050606 89.297623
115.088776 56.080132
116.061142 113.043503
117.069725 774.398682
119.084824 814.201599
120.083977 277.166687
121.048828 105.375
121.099487 374.292999
122.094948 393.038513
123.036407 149.778793
123.105034 475.521698
123.53904 113.723099
124.026024 312.047913
124.106598 163.083298
125.045876 142.010895
125.095619 1929.838013
125.760269 61.666672
126.033859 686.25177
127.047905 449.764709
128.052155 483.694885
128.950912 100.587303
129.068848 191.224503
130.076416 150.164505
131.084305 8608.884766
131.188004 119.016998
132.091171 1563.475952
132.72049 72.761902
133.098434 1026.564941
133.258682 73.8125
134.057037 63.148811
134.092865 174.355804
135.08017 2476.322998
136.080887 499.378906
137.11908 58.01667
138.035461 762.108887
138.088135 100.857101
139.05159 137.0
140.065125 93.640152
141.062622 134.008301
142.070496 153.069397
143.088013 281.653107
144.083405 425.877686
144.923798 60.0
145.099991 4568.313965
146.100098 228.122803
147.104843 271.463715
148.111237 216.753098
149.048615 71.321426
149.122147 149.347198
150.043411 156.840302
150.126801 454.903992
151.072617 77.80278
151.13446 108.653198
152.058838 524.003784
153.088715 454.347809
154.086823 1633.077026
155.063583 693.925171
156.097214 438.878906
156.584457 66.002663
157.099472 706.455872
158.093002 349.000885
159.104736 176.666702
160.109772 1113.864014
161.118713 464.454712
161.858734 92.521744
162.036606 156.695496
162.125717 3015.310059
163.054123 183.255295
163.134872 197.230392
164.051163 126.003601
164.14476 325.665497
165.048981 65.625
166.073914 469.710785
167.068695 226.0
168.054047 200.420502
168.100784 137.100601
169.056396 78.002907
169.099533 1711.958984
170.078262 161.273697
171.048431 58.100609
171.10701 920.030273
172.109421 973.547302
173.130341 80.5625
174.058426 454.598389
174.12677 968.48053
175.13562 595.63562
176.14296 27789.859375
176.264282 268.318695
176.419189 93.107773
176.455231 110.531898
176.588242 78.959999
176.680405 56.18116
176.763992 88.208344
176.805511 66.028954
177.004639 63.778851
177.075043 176.004593
177.150284 2582.454102
177.295364 55.513988
177.610687 81.09375
177.734344 80.875
178.069229 535.558228
178.150314 87.206886
180.05098 1103.30896
182.090958 364.102905
186.060455 197.5952
186.127686 9718.454102
186.250824 104.0588
186.635132 65.01667
186.791016 67.289284
187.055862 314.922089
187.135284 285.505707
188.072388 2957.677979
188.13768 601.900879
188.236145 62.032139
189.069763 150.125
189.881805 65.408783
190.067093 148.264694
190.157974 994.983398
192.075638 277.703796
193.091507 82.716843
194.064224 261.685089
195.090591 77.391296
197.07338 201.698105
197.123367 120.934998
198.05777 4879.335938
198.17981 65.605003
198.545853 84.066673
199.061646 214.795898
199.131012 87.592216
200.097076 200.0979
200.146637 149.644699
201.072754 237.344803
202.082916 159.008301
202.156418 84.023933
203.073746 91.530663
203.163666 142.537796
204.082596 2318.532959
204.609192 63.637199
205.085052 100.324997
206.080856 521.793579
207.038727 475.110413
207.106491 119.061302
208.026581 88.102272
208.106003 86.050003
209.066681 98.625
210.085861 138.471207
210.12413 75.339287
211.064987 969.095276
212.075485 1693.281006
213.158905 146.065796
214.06517 159.024994
215.170853 115.698303
217.168808 3775.885986
218.098251 187.230804
219.11319 116.138496
220.046997 73.041656
222.136566 65.005432
223.061264 1023.559021
224.073746 1647.628052
225.064484 167.979706
225.136627 101.708298
226.090805 187.862106
226.165405 113.045502
227.083633 183.1026
228.09201 718.577881
229.098663 175.699997
229.139587 147.4496
230.099655 425.493195
231.188187 351.970886
232.11116 307.008087
233.123215 57.761909
235.117096 83.34259
235.176468 59.150002
236.070023 232.574997
236.138962 61.003792
237.160324 127.080399
238.098602 180.020493
239.085281 205.668106
239.182343 80.007347
240.077591 85.816673
241.10025 915.689026
242.092575 362.504791
243.112823 316.000885
244.088058 161.481705
245.132645 63.841221
247.138641 70.245003
248.604675 83.125
249.139709 486.965088
250.968063 84.480263
251.103226 93.224998
252.081924 183.380997
253.063644 135.523499
253.092957 158.183395
253.17955 110.235298
254.104538 182.0401
255.670074 139.4142
256.114197 4126.558105
256.63324 55.04546
257.126862 450.628113
258.129791 904.421509
258.773865 78.01786
259.121368 180.843002
260.134857 56.657612
261.145111 58.244999
262.150299 80.344513
264.100952 311.783112
264.271698 61.242649
265.081268 59.18182
265.159698 64.603569
266.111572 222.472702
266.278198 59.875
267.00174 886.111572
267.992218 109.889297
268.25943 65.515633
268.978149 72.036293
269.111481 115.573402
270.126404 196.038498
271.081818 125.240097
271.136902 88.125
272.146606 277.625
273.141235 985.576172
274.161713 59.778221
275.117004 299.132385
275.170685 95.307693
275.215576 83.769234
276.106476 416.273712
278.123047 118.128998
279.112366 356.06369
279.614716 60.013161
280.115448 171.177597
281.056 426.225494
281.129425 149.281693
281.18692 161.001602
282.042572 116.050003
282.128998 758.908386
283.170868 155.272705
284.145111 106.025002
286.157135 120.408302
286.601135 148.923096
287.170776 77.640152
288.10791 87.061272
288.137177 74.038803
289.170563 413.1073
290.119324 78.515633
292.126404 98.778229
293.134735 371.088898
294.149384 90.428574
296.141815 489.349487
296.303284 72.010406
298.129852 709.170227
299.157745 4168.13916
300.151611 332.0625
301.105103 79.339287
301.172058 390.813293
302.12674 278.080414
303.140259 90.022957
304.156036 123.636398
305.129333 79.140633
306.149658 147.25
307.143402 236.257996
307.279327 57.512501
308.12442 254.1828
308.186737 440.502197
309.172668 144.570297
312.01181 66.84375
312.111542 85.449997
313.169769 424.306488
314.120148 96.003052
314.16571 85.926277
315.186493 1026.061035
316.13562 4031.198975
317.152466 269.80899
318.145416 222.001404
319.141449 151.4198
321.182678 128.128998
322.150177 153.173798
324.13974 3604.427002
324.528625 59.190479
325.102478 77.880096
325.16098 348.190491
326.145874 863.12677
326.188873 665.617493
327.19458 191.25
328.200684 63.200001
329.191742 73.002548
330.148499 273.572815
332.16748 64.136108
333.161896 2431.105957
333.703613 56.521549
334.323761 59.273651
335.17688 101.041702
338.152161 384.571289
338.204498 179.285706
340.155579 1159.223999
341.02301 99.0
341.165863 1461.468018
342.050598 61.69397
342.15094 21756.779297
342.316864 222.024994
342.362061 93.002777
342.41214 62.015629
342.48761 66.693962
342.665955 68.306824
342.747833 82.002548
343.01123 112.680603
343.152344 1137.636963
343.220367 876.908203
343.315735 58.0
343.577637 87.17308
344.178528 1517.837036
345.157227 98.281967
345.212646 80.14286
347.173157 99.610001
350.140594 770.040588
351.121185 77.920464
353.144775 56.695511
354.176666 116.384598
354.227448 72.875
355.067413 594.458313
356.070068 423.304901
356.158051 72.125
357.076294 136.884598
357.152435 145.257797
358.059509 90.094704
358.177826 70.083344
359.178406 10212.519531
359.346527 86.06649
360.173431 410.372406
361.192657 411.379303
362.15033 96.0
363.177826 104.130302
364.144531 130.570999
365.148834 116.041702
368.195862 80.59375
369.17926 61.166672
371.092773 180.030304
372.114563 73.072678
372.171051 121.314102
373.19104 440.510712
374.184509 158.055206
375.176758 71.080132
376.153473 362.043488
377.178009 104.008301
380.176025 378.420197
385.157959 113.315804
386.167847 139.474106
386.225433 326.009888
387.041931 72.048912
387.212494 643.570679
388.156342 152.539795
389.15744 285.758606
391.167023 179.537201
392.230804 65.76136
393.181366 513.187012
394.720276 59.003792
395.192291 163.5634
397.221863 59.654411
399.23645 132.560196
401.170929 117.644997
404.233826 2581.785889
405.168365 61.246948
406.41687 56.01923
407.250305 169.917206
410.121307 68.002777
411.917175 56.00544
412.232971 66.16346
422.217621 79.014709
424.278839 74.185608
428.183929 218.132202
428.243378 83.150002
429.185974 100.051201
431.200073 239.4048
434.227936 60.603569
434.277496 68.489868
444.297241 63.8811
445.216003 278.340912
447.234741 85.737244
448.232086 166.005997
450.248505 127.565201
451.246246 121.083298
454.205231 255.415207
455.193848 57.888889
456.210815 82.10714
461.221405 71.78125
467.219788 105.199997
467.273193 64.027779
468.221191 994.342102
469.224487 132.382797
471.212463 81.050003
475.21521 166.723206
476.234222 161.470596
477.278687 133.778793
478.277863 527.33551
482.232452 181.006302
485.245209 1900.123047
492.217316 63.23547
493.246796 496.412811
494.235352 6570.313965
494.414825 77.019234
495.035736 59.112499
495.22583 187.314301
495.646973 58.25
496.247528 594.953613
507.520569 63.3125
511.260193 21614.150391
511.704498 78.368309
511.831879 73.650749
511.924896 104.379097
512.138916 55.150002
512.262207 883.302795
512.582336 63.816669
512.812073 82.273651
513.275696 876.387573
513.525085 57.452641
514.116089 80.08696
523.313599 55.444439
525.276978 641.91748
525.778564 70.890633
526.217285 70.289284
527.273987 63.025002
531.295776 101.958298
536.272705 77.727272
539.294678 984.432129
554.294495 63.038792
554.461304 55.222832
556.085571 111.001701
556.317444 12294.259766
556.599487 98.289284
556.743713 71.889282
557.325134 260.370605
557.539734 61.002911
557.609619 77.367653
591.296448 55.333328
596.354187 71.816856
600.295288 74.644997
603.285278 266.13089
650.411255 61.048908
687.344666 64.555557
706.330994 97.285378
719.323547 67.0625
786.50824 79.679047
894.444275 102.199997
