>compound Methocarbamol
>formula C11H15NO5 
>ionization [M+H]+
>parentmass 242.102
#inchi InChI=1S/C11H15NO5/c1-15-9-4-2-3-5-10(9)16-6-8(13)7-17-11(12)14/h2-5,8,13H,6-7H2,1H3,(H2,12,14)
#inchikey GNXFOGHNGIVQEH
#Ion_Source LC-ESI
#Instrument qTof
#Compound_Source Isolated
#PI Sirenas
#Data_Collector Ed Esquenazi 
#Scan -1
#Precursor_MZ 242.102
#ExactMass 0.0
#Charge 1
#CAS_Number N/A
#Pubmed_ID N/A
#Smiles N/A
#INCHI_AUX N/A
#Library_Class 3
#SpectrumID CCMSLIB00000005478
#IonMode Positive
#UpdateWorkflowName UPDATE-SINGLE-ANNOTATED-BRONZE
#LibraryQualityString Bronze
#TaskID d19310cd93df49b68e9fcbec27720eb5
##Scan# 3
#SpectrumFile Methocarbamol.mgf
#LibraryName fda_library.mgf
#MQScore -1
#Organism fda_library
#TIC_Query 0
#RT_Query -1
#MZErrorPPM -1
#SharedPeaks 0
#MassDiff 0
#LibMZ -1
#SpecMZ 242.102
#SpecCharge 0
#internalFilename spec-00000.mgf

>collision 10
102.043533 113.1745
102.085197 2.722222
102.193291 4.375
102.478317 14.3705
102.532089 4.711957
102.58242 8.408334
102.59198 9.405142
102.613113 4.069444
102.665504 9.240079
102.676689 3.020833
102.884659 7.704166
102.998978 55.276379
103.008575 4.349638
103.053688 2732.36792
103.081604 5.013889
103.10218 5.013889
103.110619 10.00765
103.13517 12.88741
103.14595 4.69697
103.168976 25.370371
103.199982 17.10062
103.266113 5.694445
103.33329 10.00765
103.365303 6.670455
103.382835 3.337963
103.389885 6.737069
103.4356 5.265351
103.606071 11.77193
103.740562 11.87879
104.443146 7.704166
104.532104 5.375
104.548065 18.08333
104.692169 12.01282
105.036888 16.605619
105.069412 1265.901001
105.112617 8.700757
105.126884 2.0
105.141609 9.556818
105.16613 4.340278
105.35173 7.173851
105.398132 23.4769
105.810219 27.632021
106.665176 18.013889
107.00428 4.734848
107.04937 328.441711
107.369835 19.97336
107.382469 7.348333
107.714394 6.482143
108.055336 287.806488
108.514389 3.680556
108.725914 7.0
109.027252 476.887604
109.064125 186.714005
109.095253 15.70513
109.247078 3.002778
109.254364 9.435606
109.323601 12.08013
109.458275 3.42803
109.479866 5.0
109.501762 13.33991
109.580475 5.469444
109.831345 16.00379
110.035789 1626.969971
110.081352 10.13626
110.121506 1.875
110.154366 15.53186
110.171242 16.763889
110.242081 14.44537
110.274887 3.047619
110.43589 3.4
110.677116 12.37374
111.946152 36.670639
115.053833 82.51062
115.112465 3.125
115.344101 9.830426
116.062035 44.300739
118.049171 534.676208
118.102966 3.688725
118.557945 5.939394
119.624268 3.490385
119.631355 8.449074
120.056343 702.375183
120.103638 6.011364
120.114586 15.2192
120.153473 11.99212
120.240936 15.0101
120.347511 6.240079
120.424118 2.700758
120.447021 7.338235
120.466118 5.415
120.483299 1.708333
120.668571 4.002451
121.028107 2564.781982
121.063271 247.837494
121.142906 8.0
121.177368 2.337963
121.231041 18.067209
121.311684 16.30225
121.338264 10.01654
121.395195 13.3373
121.460922 10.06618
121.480553 20.383329
121.610985 30.321159
121.638382 5.25
121.856155 6.022223
122.035904 3816.36499
122.082977 32.799198
122.13015 7.111111
122.156982 13.78241
122.171204 5.375
122.2136 8.428572
122.248177 4.061275
122.32682 15.88982
122.372139 8.223765
122.420151 6.414216
122.50602 6.422101
122.644684 9.669871
122.709213 4.481482
123.080902 84.54528
123.204376 4.066667
123.275421 7.708333
124.053627 152.045593
125.243187 16.706141
126.613747 3.333333
130.038589 32.173908
131.050003 235.265396
131.31131 9.721774
131.614075 4.0
132.054749 176.650497
132.080383 6.041667
135.078842 362.26239
135.31514 32.80508
135.360535 5.833333
136.047943 95.662987
137.0569 56.083328
145.067902 12.83333
146.036621 18.366871
147.043961 267.455688
147.075775 4.335318
147.097214 2.722222
147.306259 11.36111
148.052963 99.396446
148.099533 7.818182
148.409882 24.33507
161.061386 58.18211
161.436356 16.363331
195.457153 9.960366
799.937134 2.0
