>compound AmilorideHCl
>formula C6H8ClN7O 
>ionization [M+H]+
>parentmass 230.055
#inchi InChI=1S/C6H8ClN7O/c7-2-4(9)13-3(8)1(12-2)5(15)14-6(10)11/h(H4,8,9,13)(H4,10,11,14,15)
#inchikey XSDQTOBWRPYKKA
#Ion_Source LC-ESI
#Instrument qTof
#Compound_Source Isolated
#PI Sirenas
#Data_Collector Ed Esquenazi 
#Scan -1
#Precursor_MZ 230.055
#ExactMass 0.0
#Charge 1
#CAS_Number N/A
#Pubmed_ID N/A
#Smiles N/A
#INCHI_AUX N/A
#Library_Class 3
#SpectrumID CCMSLIB00000005340
#IonMode Positive
#UpdateWorkflowName UPDATE-SINGLE-ANNOTATED-BRONZE
#LibraryQualityString Bronze
#TaskID d19310cd93df49b68e9fcbec27720eb5
##Scan# 3
#SpectrumFile AmilorideHCl.mgf
#LibraryName fda_library.mgf
#MQScore -1
#Organism fda_library
#TIC_Query 0
#RT_Query -1
#MZErrorPPM -1
#SharedPeaks 0
#MassDiff 0
#LibMZ -1
#SpecMZ 230.055
#SpecCharge 0
#internalFilename spec-00000.mgf

>collision 10
100.269028 1.575
100.449539 1.870833
100.467216 22.65556
100.506599 4.166667
100.604187 4.002193
100.660027 2.677696
100.921173 2.875
100.989845 3489.38501
101.03376 8.02172
101.039116 12.72222
101.04731 7.652716
101.067169 8.023707
101.082802 3.402778
101.111282 9.930556
101.117973 1.745192
101.146835 1.613426
101.161064 9.191358
101.171196 7.344363
101.185631 4.5125
101.194756 3.506944
101.210968 10.92391
101.254608 8.313375
101.264763 4.037037
101.289268 1.5125
101.296745 9.710187
101.310997 2.740036
101.335564 3.409091
101.379807 2.816667
101.391693 3.78125
101.411804 12.55274
101.432877 8.905406
101.460281 4.503472
101.489281 3.486413
101.516586 6.736111
101.618675 9.500992
101.663055 7.96875
101.961205 2.946759
101.992149 13.58036
101.999664 12.95066
102.046509 11.20591
102.208672 6.862268
102.356445 6.03592
102.83326 7.352941
106.914757 3.080128
107.034279 209.098907
107.264954 5.15
107.472855 1.729167
107.491074 5.833333
107.498138 7.333333
107.51281 9.028935
107.561729 4.020833
107.577644 2.363971
107.62709 7.296759
107.636101 1.891204
107.714813 2.508152
107.905861 7.38447
108.042892 4209.450195
108.087433 44.390091
108.129486 11.90118
108.166939 3.679487
108.173843 2.847222
108.180611 18.619459
108.195412 7.172715
108.221901 5.1875
108.228127 4.504573
108.246925 8.689251
108.258713 8.155401
108.289665 11.33333
108.308891 9.685227
108.358459 3.01282
108.388176 4.778409
108.40554 3.680021
108.420029 4.338141
108.456253 7.174934
108.532349 3.515783
108.570129 4.520833
108.604851 4.381547
108.66394 9.889255
108.873306 6.244907
109.030296 3.595109
109.038963 14.9374
109.047852 30.19206
109.337418 8.463735
109.508293 3.277778
109.749878 3.002604
110.06012 15.02047
112.716927 20.462589
115.067253 2.408333
115.195152 3.852083
115.296013 6.043403
115.32959 6.516304
115.340797 1.166667
115.373665 5.840278
115.394905 17.85417
115.404381 12.84426
115.41246 6.788074
115.440926 42.52964
115.448242 30.26251
115.469849 14.92744
115.48468 8.18869
115.499001 16.41658
115.511421 13.77808
115.517807 10.66603
115.54129 31.86607
115.560173 15.83755
115.581367 21.94029
115.604996 5.320513
115.633026 11.05339
115.639893 3.581317
115.654182 3.632675
115.684151 19.960369
115.703903 19.06741
115.734032 2.648284
115.759727 10.68898
115.799721 2.724537
115.839195 10.262
115.86039 2.669643
115.868179 6.394817
115.968819 17.11932
115.981956 20.37146
116.001007 25596.560547
116.06575 7.442935
116.113503 10.62667
116.123024 9.50032
116.137459 28.451059
116.152985 6.333333
116.178017 7.133772
116.215538 39.155571
116.222404 13.34368
116.244766 59.691921
116.258049 14.11857
116.268234 17.13492
116.274551 17.088261
116.281631 18.88484
116.291138 4.887062
116.321632 69.217262
116.332886 15.50599
116.34803 8.675
116.369499 34.676399
116.38607 10.43783
116.400749 13.95553
116.407501 8.775678
116.422104 7.184848
116.459114 32.851429
116.495575 50.000031
116.514793 23.13201
116.523994 5.115385
116.552994 31.91416
116.568947 39.473228
116.592865 10.85417
116.608093 4.855511
116.622124 8.078193
116.659279 7.183435
116.667221 15.21672
116.712311 1.671875
116.728584 17.680559
116.753654 8.000331
116.777275 8.90947
116.806908 8.405357
116.837639 7.833965
116.857254 13.25148
116.904533 7.713281
117.002449 117.771599
117.062202 22.44887
117.092209 4.335526
117.149139 3.560049
117.417824 12.66077
117.435028 2.667339
117.472672 3.215278
117.529663 8.847222
117.551201 10.04226
117.615799 7.065217
117.633926 4.336806
117.683983 2.336539
117.802666 9.32545
117.861427 3.691667
118.080582 3.714881
118.385101 2.458333
118.948441 9.122475
118.985809 5.166667
119.225006 6.762236
119.646996 1.683712
121.883949 6.186531
124.357834 6.284722
124.56353 1.166667
134.046967 15.23185
134.459457 3.246795
140.995483 90.122131
141.326111 5.670656
142.018387 1.963141
142.096664 6.125
142.144104 3.708333
142.229538 7.19391
142.283081 2.166667
142.299683 1.335648
142.338425 4.013889
142.361938 4.261824
142.37854 1.833333
142.395142 1.514423
142.411484 3.469697
142.432098 9.692842
142.49884 5.433929
142.515564 5.170343
142.590439 6.25
142.665268 9.738782
142.737686 4.336309
143.011276 4142.591797
143.06218 42.613838
143.08075 23.73933
143.089279 3.697917
143.11438 3.020833
143.128311 9.736743
143.139236 6.667059
143.171295 16.96759
143.183411 19.28746
143.193344 8.180555
143.207596 9.547222
143.233063 6.674633
143.262436 3.047619
143.282196 7.343098
143.314072 2.864583
143.33905 5.702587
143.364044 4.054824
143.38147 4.422149
143.389038 3.364268
143.396896 7.961853
143.42395 4.053728
143.435165 3.006944
143.459549 4.954741
143.487274 18.475691
143.510117 4.130401
143.541992 6.100595
143.593231 5.0
143.605835 3.020833
143.633621 7.981548
143.76004 4.171027
143.84903 3.826993
144.01326 28.05637
144.573914 3.206731
144.591309 6.666667
161.021378 179.046204
161.896866 1.671296
165.190659 19.96382
168.850082 1.633333
169.930847 6.545455
170.067368 19.554489
170.134796 9.56586
170.217377 11.17495
170.352859 4.752541
171.006668 992.954407
171.112 1.361111
171.159134 16.221149
171.187454 4.466667
171.25769 9.30617
171.29863 5.333699
171.312302 5.800463
171.352631 4.609601
171.371597 10.51961
171.398911 6.067819
171.40802 9.679167
171.461533 7.57337
171.494537 4.040833
171.538757 1.854167
171.69043 3.349116
171.713852 4.625
171.829834 3.62004
171.95079 6.868535
172.352921 11.50318
172.813736 3.393939
246.15918 1.745192
650.332458 1.963141
853.302063 6.767262
999.105957 2.694079
1467.001587 1.501894
