>compound cyclo(L-Trp-L-Pro)
>formula C16H17N3O2 
>ionization [M+H]+
>parentmass 284.1393532360905
#inchi InChI=1S/C16H17N3O2/c20-15-14-6-3-7-19(14)16(21)13(18-15)8-10-9-17-12-5-2-1-4-11(10)12/h1-2,4-5,9,13-14,17H,3,6-8H2,(H,18,20)/t13-,14-/m0/s1
#inchikey RYFZBPVMVYTEKZ
#Ion_Source DI-ESI
#Instrument qTof
#Compound_Source Isolated
#PI Keyzers
#Data_Collector R Keyzers
#Scan -1
#Precursor_MZ 284.139
#ExactMass 283.132
#Charge 1
#CAS_Number 38136-70-8
#Pubmed_ID N/A
#Smiles N/A
#INCHI_AUX N/A
#Library_Class 3
#SpectrumID CCMSLIB00000007120
#IonMode Positive
#UpdateWorkflowName UPDATE-SINGLE-ANNOTATED-BRONZE
#LibraryQualityString Bronze
#TaskID 76b66bf1ccd04cec9993212b36387ea3
##Scan# 2
#SpectrumFile CDB02_28H_MSMS_001.mgf
#LibraryName gnps_library.mgf
#MQScore -1
#Organism test_rob_keyzers
#TIC_Query 0
#RT_Query -1
#MZErrorPPM -1
#SharedPeaks 0
#MassDiff 0
#LibMZ -1
#SpecMZ 284.139
#SpecCharge 0
#internalFilename spec-00000.mgf

>collision 10
100.025726 35.297199
103.055252 133.647995
107.962448 147.429199
115.051071 93.002663
115.084869 296.305695
117.054955 34.529411
117.663155 38.611839
118.062012 424.890594
122.024101 29.02632
125.068596 311.449493
130.062881 21119.990234
130.320023 30.45701
130.382065 36.71925
130.518112 31.6875
130.609024 43.502499
130.669128 40.39204
130.729111 28.27841
130.98291 37.059212
131.067383 2019.92395
131.172897 35.373089
131.829239 28.70455
132.078186 2261.690918
132.184723 31.843201
133.081284 231.917297
133.847183 35.501789
137.063019 74.008926
137.126099 46.511971
141.123917 87.182449
149.0755 71.091911
153.064713 589.396423
154.061417 152.291702
155.080414 306.382904
156.081955 95.648216
157.028564 28.450661
159.08847 357.733612
160.100388 36.02174
160.990921 112.059601
167.081711 73.01667
170.057373 1422.464966
171.060699 139.042404
172.016708 26.799999
173.055511 26.65341
174.743347 31.73558
177.113403 45.48214
181.108322 45.343201
182.132767 37.183708
185.108414 44.875
189.054672 45.42857
198.913895 34.981621
200.93132 50.57122
203.087387 42.889111
207.02771 36.62981
209.066208 27.757811
211.038666 40.03289
214.033844 25.56653
216.919998 97.03125
217.135773 28.56793
219.115997 48.66766
222.510101 43.541672
226.850906 30.164471
229.099976 33.484909
239.120041 181.263
241.099533 66.5625
241.95813 26.68371
242.273376 58.860031
243.046677 161.329895
243.129105 370.073608
243.550079 68.46196
243.588104 74.919998
244.124191 56.413792
244.541153 69.328407
245.031372 32.920059
245.086655 74.326607
246.100479 62.583328
251.17067 105.5951
252.123322 48.036289
252.183243 30.28533
254.133057 27.615391
256.143372 77.479156
257.108154 34.082851
265.119415 46.524799
266.128235 44.716068
266.174774 54.724541
267.005219 28.908331
267.114166 147.653198
267.167511 40.501888
268.029938 45.8176
268.243591 25.80179
269.158783 60.55191
274.032745 50.082851
277.093994 42.566528
282.553375 47.816891
282.657623 60.04438
283.039032 75.14286
283.133606 608.983521
283.193329 398.703186
283.358948 25.90909
283.531708 34.06794
283.898071 27.236839
284.136688 24372.070312
284.328278 3936.9021
284.622162 28.04352
284.716644 43.178928
284.78537 26.359079
284.845001 52.496891
284.908264 34.458641
284.953766 44.711231
285.140991 4631.821777
285.331543 465.036987
285.414703 45.066349
285.596466 49.645039
285.822418 54.115379
285.932251 35.988129
285.988525 29.28775
286.017822 30.55308
286.138367 231.548599
286.214325 168.156906
286.30069 63.578529
286.411072 27.121321
286.874847 37.840279
286.989685 38.154411
287.369446 31.90132
311.296692 24.875
356.168793 31.02083
877.738464 52.20417
1446.338501 49.77573
2159.162842 94.338913
2248.693848 31.58173
2950.863281 35.48
