>compound Cefdinir
>formula C14H13N5O5S2 
>ionization [M+H]+
>parentmass 396.043
#inchi InChI=1S/C14H13N5O5S2/c1-2-5-3-25-12-8(11(21)19(12)9(5)13(22)23)17-10(20)7(18-24)6-4-26-14(15)16-6/h2,4,8,12,24H,1,3H2,(H2,15,16)(H,17,20)(H,22,23)/b18-7-/t8-,12-/m1/s1
#inchikey RTXOFQZKPXMALH
#Ion_Source LC-ESI
#Instrument qTof
#Compound_Source Isolated
#PI Sirenas
#Data_Collector Ed Esquenazi 
#Scan -1
#Precursor_MZ 396.043
#ExactMass 0.0
#Charge 1
#CAS_Number N/A
#Pubmed_ID N/A
#Smiles N/A
#INCHI_AUX N/A
#Library_Class 3
#SpectrumID CCMSLIB00000004546
#IonMode Positive
#UpdateWorkflowName UPDATE-SINGLE-ANNOTATED-BRONZE
#LibraryQualityString Bronze
#TaskID d19310cd93df49b68e9fcbec27720eb5
##Scan# 3
#SpectrumFile Cefdinir.mgf
#LibraryName fda_library.mgf
#MQScore -1
#Organism fda_library
#TIC_Query 0
#RT_Query -1
#MZErrorPPM -1
#SharedPeaks 0
#MassDiff 0
#LibMZ -1
#SpecMZ 396.043
#SpecCharge 0
#internalFilename spec-00000.mgf

>collision 10
100.008018 171.537506
100.98951 69.745941
101.01825 144.8638
102.001106 956.40918
104.047478 112.448997
105.04261 95.33004
105.055901 354.740814
106.02787 446.2453
107.059692 154.865799
107.073959 54.548779
108.044083 390.928589
108.068535 64.552292
109.009232 218.373306
109.076248 122.217003
110.017624 72.570572
110.060249 303.988312
111.000771 134.115997
111.025848 228.053406
111.041313 52.761829
111.079033 43.500099
111.985641 22.185249
112.010048 199.119797
112.018494 29.028629
112.793373 31.137779
113.016457 396.932098
113.031868 115.306
113.999641 44.978851
114.96785 33.479172
117.044273 236.606598
118.055298 20.667299
119.033234 37.59605
119.060043 951.206177
120.04438 257.655212
121.049797 28.86021
121.075455 306.869904
122.005241 39.858742
122.035049 43.92606
122.058601 77.118134
123.000359 35.560169
123.014008 191.524506
123.040024 53.898109
124.020943 1206.692993
124.050255 2721.908936
124.095406 26.108931
124.111336 20.66288
124.126099 39.691269
124.300858 28.611891
124.348564 65.719559
125.004311 2335.22998
125.1987 48.74305
125.402832 25.696939
125.618935 34.036621
126.012238 20067.640625
126.269455 36.996262
126.285866 25.624571
126.317993 41.13961
126.387306 33.018661
126.41658 25.08613
126.428017 28.06465
126.470688 20.364349
126.496994 22.673651
126.523483 41.274261
126.580704 23.83408
126.995476 200.524002
127.980873 274.237213
128.392044 22.81045
129.008682 44.465321
129.04393 34.928711
130.054214 46.687908
131.980759 147.269806
132.041809 108.561501
133.03891 199.644501
134.052582 29.020029
135.055206 224.0336
136.003586 49.14349
136.021561 1266.508057
136.980225 112.407898
137.028687 86.723793
137.067642 38.641281
138.036926 251.8284
138.421524 28.84915
138.708908 22.004101
138.995529 263.787598
139.019012 136.736404
139.96138 31.11433
140.026947 106.136299
140.997147 24.166889
141.010681 57.006222
141.165298 25.37924
141.302078 26.13332
141.450974 23.19808
141.977692 21.42477
142.006607 3770.229004
142.141098 29.030769
142.218124 22.270321
142.973221 331.011993
143.009888 21.1875
143.059235 44.601559
144.018982 80.52282
144.987 109.317299
145.038666 75.576752
146.022964 39.17173
147.05455 756.125183
148.038239 115.3517
149.064545 32.671539
150.013458 36.858212
150.02623 125.704803
150.051834 43.58139
151.002426 38.27071
151.052795 22.89048
151.207932 32.613258
151.297668 45.904099
151.988647 46.95491
152.016769 5545.992188
152.027328 333.43631
152.125565 21.91894
152.176468 29.6674
152.408371 29.96381
153.047287 137.651398
153.064148 113.303802
154.015121 119.393898
154.033585 26.67938
155.014648 131.996201
155.979965 31.33399
156.02269 292.051086
156.978378 51.667042
157.983643 194.520599
159.054657 27.46002
161.015167 69.476463
161.033951 154.911697
163.040283 33.50724
163.990387 26.541559
164.016434 338.760315
164.997681 56.02264
166.012726 59.75824
166.030563 2683.915039
166.280106 20.46987
166.584457 28.668539
166.973022 50.527012
166.984467 25.50729
167.955917 52.295818
167.980637 160.107407
168.024582 35.723862
168.950745 30.226721
168.987686 111.520302
169.016617 64.32515
170.004776 22.50087
170.025925 261.782288
171.975128 44.786259
171.997498 44.359421
172.066696 43.81279
173.067261 25.282351
174.024933 32.718109
174.063492 21.02083
177.019913 24.34704
177.995422 44.430012
179.027786 339.525513
179.042679 83.169273
179.965881 70.741783
179.98822 41.501541
180.02211 3157.729004
181.0383 67.986237
181.981949 103.461998
182.301163 24.96921
182.968994 66.085114
183.032623 858.81012
183.999771 154.318207
184.987015 30.620319
189.010834 77.336861
190.044952 26.00349
192.009262 80.199806
193.01738 415.037689
193.999725 32.936619
195.034607 44.341251
195.97554 206.483307
198.001617 258.909912
198.986572 41.596802
199.025909 114.226196
199.051071 48.07177
199.992935 285.282593
201.990997 23.186211
203.024399 27.835911
205.039169 32.20409
206.033127 32.36021
206.978134 58.17115
207.020309 99.746078
208.034683 22.3015
208.983826 26.69278
209.011841 369.197205
209.975815 39.960541
210.021896 265.063202
210.986786 39.064079
211.02771 902.839417
211.13588 32.131611
211.239197 20.926701
211.994125 189.699799
213.001511 1268.078003
215.029663 23.376301
217.042892 20.66667
219.070953 27.945021
221.011475 21.339319
224.75531 27.07892
224.991562 36.398811
225.997314 350.673706
227.005478 193.011993
227.018875 42.3125
229.058655 90.760239
229.995239 24.39645
234.975433 111.516899
235.064133 22.01733
240.993622 43.300259
242.038177 20.883829
242.998138 189.913803
245.000748 38.1945
248.05452 27.00462
252.982941 41.035172
253.991119 50.78273
258.052246 22.612659
305.010864 22.819559
