>compound MLS002207196-01!Dimethoate60-51-5
>formula C5H12NO3PS2
>ionization [M+H]+
>parentmass 230.007
#inchi InChI=1S/C5H12NO3PS2/c1-6-5(7)4-12-10(11,8-2)9-3/h4H2,1-3H3,(H,6,7)
#inchikey MCWXGJITAZMZEV
#Ion_Source LC-ESI
#Instrument qTof
#Compound_Source NIH Pharmacologically Active Library
#PI Dorrestein
#Data_Collector VP/LMS
#Scan -1
#Precursor_MZ 230.007
#ExactMass 229.0
#Charge 1
#CAS_Number N/A
#Pubmed_ID N/A
#Smiles CNC(=O)CSP(=S)(OC)OC
#INCHI_AUX N/A
#Library_Class 1
#SpectrumID CCMSLIB00000085896
#IonMode Positive
#UpdateWorkflowName UPDATE-SINGLE-ANNOTATED-GOLD
#LibraryQualityString Gold
#TaskID d252d724072548979f1f6f1ced849daf
##Scan# 1422
#SpectrumFile p4-G08_GG8_01_18404.mzXML
#LibraryName Pharm_Active_Library.mgf
#MQScore -1
#Organism Pharm_Active_Library
#TIC_Query 0
#RT_Query -1
#MZErrorPPM -1
#SharedPeaks 0
#MassDiff 0
#LibMZ -1
#SpecMZ 230.007
#SpecCharge 0
#internalFilename spec-00000.mgf

>collision 10
44.95155 188.0
44.994263 232.0
45.047684 172.0
46.382648 44.0
46.876022 120.0
49.238071 160.0
49.985306 184.0
50.045834 196.0
52.858162 216.0
52.995724 216.0
53.800034 128.0
54.907921 168.0
57.112438 168.0
57.926075 108.0
59.767414 152.0
60.016953 132.0
60.214489 84.0
60.389145 88.0
61.60944 188.0
62.437092 116.0
62.465405 204.0
62.614937 84.0
66.972183 160.0
67.273865 152.0
68.012146 124.0
68.043343 160.0
68.733009 216.0
68.770966 136.0
69.338287 216.0
70.129448 136.0
70.169456 188.0
70.752548 184.0
73.731544 220.0
73.892288 56.0
75.841774 204.0
75.902451 220.0
76.074219 172.0
78.057373 76.0
79.188644 200.0
80.756767 180.0
81.036774 264.0
85.794716 156.0
86.147209 148.0
86.402115 200.0
86.696754 160.0
87.551353 184.0
88.02877 224.0
88.704216 196.0
88.846741 200.0
89.943878 144.0
90.344513 68.0
90.838959 140.0
92.489212 144.0
93.007599 308.0
94.038475 44.0
94.798553 204.0
94.899353 80.0
96.056541 148.0
96.9991 124.0
99.455704 116.0
99.830528 204.0
101.103355 212.0
102.833847 52.0
103.579979 152.0
104.017197 360.0
104.642128 164.0
105.621719 144.0
110.946342 172.0
110.96627 376.0
111.498405 176.0
112.589745 216.0
112.968102 96.0
115.589447 184.0
116.33963 160.0
116.5802 176.0
118.022354 164.0
118.886696 140.0
119.99514 172.0
123.999763 200.0
124.099052 240.0
124.981728 13560.0
125.020927 52.0
125.058769 32.0
125.488724 84.0
125.756424 44.0
125.984032 488.0
126.02047 196.0
126.113808 92.0
126.581398 176.0
126.684425 40.0
126.805428 68.0
126.843536 128.0
126.944435 44.0
126.979568 508.0
127.016487 208.0
127.04985 88.0
127.433777 48.0
127.654068 128.0
128.354416 28.0
128.622894 52.0
128.954941 100.0
128.975784 480.0
130.974396 184.0
137.325119 56.0
137.390442 140.0
137.817703 144.0
138.240967 164.0
140.402344 140.0
142.76355 196.0
142.991699 1872.0
143.027649 64.0
143.118118 52.0
143.22052 100.0
143.258636 104.0
143.280075 60.0
143.993164 344.0
144.02916 60.0
144.987671 212.0
145.629227 132.0
145.679672 124.0
147.973267 216.0
150.497131 212.0
152.739624 64.0
152.808502 276.0
155.822479 164.0
155.972748 200.0
156.951965 1636.0
157.0448 64.0
157.164551 60.0
157.964035 136.0
158.947571 292.0
159.121887 84.0
163.945892 152.0
170.925095 48.0
170.970734 1220.0
171.1698 40.0
171.974213 168.0
172.973923 140.0
189.529846 172.0
197.039581 124.0
198.95755 160.0
231.707886 100.0
290.7677 84.0
843.148376 72.0
870.119751 192.0
933.534241 72.0
936.44342 120.0
966.000549 84.0
970.86908 124.0
992.333008 40.0
1036.797974 176.0
1053.431274 176.0
1085.290894 160.0
1095.40564 220.0
1102.145264 20.0
1121.781128 128.0
1130.089478 60.0
1136.904541 256.0
1140.921387 112.0
1142.878662 140.0
1146.31958 180.0
1154.440918 160.0
1175.30957 180.0
1189.195435 156.0
1201.85144 224.0
1205.048462 172.0
1205.960571 180.0
1209.315308 116.0
1234.760132 204.0
1246.418701 152.0
1250.9552 144.0
1258.244873 236.0
1267.843994 80.0
1271.297729 92.0
1283.455078 284.0
1288.279907 64.0
1290.845947 136.0
1298.487427 260.0
1321.967163 224.0
1330.701904 180.0
1333.723999 168.0
1346.088013 204.0
1348.279663 136.0
1348.652344 60.0
1359.763672 176.0
1374.224243 140.0
1377.70166 152.0
1384.477295 176.0
1385.025391 256.0
1388.783447 192.0
1390.289551 84.0
1406.224365 180.0
1419.871582 164.0
1421.409424 184.0
1429.939331 52.0
1437.77771 216.0
1456.745605 188.0
1461.322388 108.0
1471.337402 272.0
1482.474609 192.0
