>compound MLS001076686-01!Tizanidine hydrochloride64461-82-1
>formula C9H8ClN5S
>ionization [M+H]+
>parentmass 254.025497
#inchi InChI=1S/C9H8ClN5S/c10-5-1-2-6-8(15-16-14-6)7(5)13-9-11-3-4-12-9/h1-2H,3-4H2,(H2,11,12,13)
#inchikey XFYDIVBRZNQMJC
#origInchi InChI=1S/C9H8ClN5S.ClH/c10-5-1-2-6-8(15-16-14-6)7(5)13-9-11-3-4-12-9;/h1-2H,3-4H2,(H2,11,12,13);1H
#Ion_Source LC-ESI
#Instrument qTof
#Compound_Source NIH Pharmacologically Active Library
#PI Dorrestein
#Data_Collector VP/LMS
#Scan -1
#Precursor_MZ 254.031
#ExactMass 253.019
#Charge 1
#CAS_Number N/A
#Pubmed_ID N/A
#Smiles Clc1ccc2nsnc2c1NC3=NCCN3.Cl
#INCHI_AUX N/A
#Library_Class 3
#SpectrumID CCMSLIB00000085513
#IonMode Positive
#UpdateWorkflowName UPDATE-SINGLE-ANNOTATED-BRONZE
#LibraryQualityString Bronze
#TaskID d252d724072548979f1f6f1ced849daf
##Scan# 970
#SpectrumFile p4-B11_GB11_01_18347.mzXML
#LibraryName Pharm_Active_Library.mgf
#MQScore -1
#Organism Pharm_Active_Library
#TIC_Query 0
#RT_Query -1
#MZErrorPPM -1
#SharedPeaks 0
#MassDiff 0
#LibMZ -1
#SpecMZ 254.031
#SpecCharge 0
#internalFilename spec-00000.mgf

>collision 10
50.037022 164.0
54.558277 188.0
55.140507 224.0
55.189289 216.0
56.27541 232.0
56.722717 248.0
57.265133 248.0
59.045429 80.0
62.198662 160.0
62.29916 104.0
62.374584 72.0
66.223549 192.0
70.177727 168.0
74.459366 156.0
74.722359 88.0
77.828392 124.0
79.956757 68.0
82.596077 124.0
82.82415 148.0
83.346619 208.0
83.792381 108.0
83.952782 116.0
86.031631 104.0
87.490601 120.0
90.682083 200.0
91.046341 168.0
91.881943 92.0
93.524178 176.0
94.791077 160.0
97.979843 136.0
103.867561 116.0
105.754341 156.0
106.077972 244.0
106.691765 164.0
107.525978 220.0
108.987961 152.0
111.975227 168.0
113.753433 56.0
115.967491 136.0
117.580521 144.0
120.601646 248.0
120.953804 56.0
120.982262 64.0
121.001961 116.0
122.206879 196.0
124.139618 160.0
124.990379 168.0
126.788002 156.0
127.364601 148.0
129.213089 160.0
132.979858 76.0
133.982407 76.0
134.065353 112.0
134.231323 168.0
134.933228 52.0
136.535492 176.0
137.740463 188.0
139.00235 148.0
141.697357 80.0
141.95105 204.0
143.947433 148.0
148.006393 196.0
148.738525 180.0
150.005829 152.0
151.01915 232.0
152.994461 144.0
153.184082 144.0
154.146271 160.0
155.282562 188.0
156.963547 380.0
158.95726 308.0
160.910431 172.0
166.692444 160.0
167.01123 152.0
168.963257 324.0
169.966644 192.0
171.962631 136.0
173.94664 188.0
174.004395 160.0
174.028015 96.0
174.985031 184.0
176.013321 164.0
178.004562 80.0
178.028458 128.0
180.814331 100.0
181.071335 112.0
181.854202 180.0
182.60379 100.0
182.977829 180.0
183.907822 164.0
183.976746 436.0
185.983505 316.0
186.864258 192.0
186.970383 132.0
187.163651 104.0
187.992203 196.0
190.021667 108.0
191.044556 176.0
192.63237 148.0
193.019287 144.0
195.73024 120.0
195.86113 136.0
195.974609 340.0
197.963028 160.0
199.979858 192.0
202.486954 136.0
203.618546 176.0
203.942429 136.0
207.570953 172.0
208.912201 172.0
209.990494 800.0
210.881607 120.0
210.981033 228.0
211.390579 144.0
211.993439 108.0
212.642517 216.0
212.982452 224.0
213.15361 52.0
215.31221 116.0
216.040009 80.0
216.950745 256.0
218.046143 244.0
218.069092 64.0
219.056274 136.0
219.284607 140.0
219.886261 104.0
220.938171 184.0
222.823669 144.0
227.005371 104.0
228.567352 120.0
228.886414 104.0
230.361191 172.0
234.95015 404.0
235.000031 116.0
236.898529 112.0
236.99765 368.0
237.89209 96.0
238.248306 48.0
238.912323 176.0
250.389297 148.0
252.889786 124.0
253.136719 132.0
254.025497 5408.0
254.122467 160.0
254.292191 108.0
254.436676 64.0
254.566849 52.0
254.852722 40.0
254.88768 56.0
255.02832 668.0
255.609482 60.0
255.985092 164.0
256.0224 2220.0
256.4841 108.0
256.561768 96.0
256.740326 52.0
256.820068 112.0
256.845581 112.0
256.925323 104.0
256.957245 176.0
257.007721 116.0
257.028046 288.0
258.650909 120.0
259.044769 36.0
259.413269 40.0
288.615784 64.0
437.345215 92.0
446.882324 120.0
483.872284 108.0
571.233337 40.0
638.502014 112.0
993.085754 128.0
1360.195435 160.0
1482.526855 188.0
