>compound Agomelatine
>formula C15H17NO2 
>ionization [M+H]+
>parentmass 244.134
#inchi InChI=1S/C15H17NO2/c1-11(17)16-9-8-13-5-3-4-12-6-7-14(18-2)10-15(12)13/h3-7,10H,8-9H2,1-2H3,(H,16,17)
#inchikey YJYPHIXNFHFHND
#Ion_Source LC-ESI
#Instrument qTof
#Compound_Source Isolated
#PI Sirenas
#Data_Collector Ed Esquenazi 
#Scan -1
#Precursor_MZ 244.134
#ExactMass 0.0
#Charge 1
#CAS_Number N/A
#Pubmed_ID N/A
#Smiles N/A
#INCHI_AUX N/A
#Library_Class 3
#SpectrumID CCMSLIB00000006277
#IonMode Positive
#UpdateWorkflowName UPDATE-SINGLE-ANNOTATED-BRONZE
#LibraryQualityString Bronze
#TaskID d19310cd93df49b68e9fcbec27720eb5
##Scan# 3
#SpectrumFile Agomelatine.mgf
#LibraryName fda_library.mgf
#MQScore -1
#Organism fda_library
#TIC_Query 0
#RT_Query -1
#MZErrorPPM -1
#SharedPeaks 0
#MassDiff 0
#LibMZ -1
#SpecMZ 244.134
#SpecCharge 0
#internalFilename spec-00000.mgf

>collision 10
100.783226 13.75203
101.035255 19.022711
102.045204 83.668327
103.054047 89.097153
103.083076 2.513889
103.992599 8.669102
104.063393 41.425072
104.089058 1.9375
104.994675 31.892361
105.013817 4.088816
105.035194 32.196251
105.066505 19.215151
107.048363 62.438419
108.322853 5.09375
108.953232 1.335227
113.03833 2.506944
113.557838 1.84375
113.944046 4.460022
114.046127 196.042801
114.301323 29.11104
114.319008 5.508333
114.420128 4.215278
114.435211 6.150915
114.476234 11.14295
114.512138 2.911859
114.537231 12.11626
114.561256 9.844697
114.650368 7.234486
114.686501 2.673611
114.76619 7.5625
114.773643 3.168982
114.787697 3.333333
114.840927 3.335227
114.907867 1.505208
115.05426 5772.250977
115.072739 1.875
115.097366 16.50794
115.112686 19.834459
115.134209 8.768333
115.154854 12.3252
115.167526 8.851893
115.177689 12.54618
115.201073 7.220487
115.21254 5.761775
115.22464 6.197917
115.232582 10.60809
115.244583 11.48438
115.251198 2.681818
115.271194 7.296297
115.291138 18.24988
115.346199 7.677083
115.361786 16.101471
115.381577 5.516666
115.394234 1.520833
115.415588 6.688386
115.441521 16.121429
115.46418 2.334167
115.520256 2.001225
115.52784 2.604167
115.542694 3.727941
115.557739 4.967262
115.571404 6.574167
115.6362 11.22628
115.647469 17.84836
115.725838 4.222222
115.764786 15.2332
115.827065 6.333841
115.923843 2.666667
116.04245 3.020833
116.245995 5.003472
116.494476 5.685417
116.701187 3.645833
116.754715 2.168269
116.82428 5.371795
116.976006 3.000992
117.033188 36.235378
117.133675 1.837963
117.288361 4.000534
118.919189 13.60289
123.003418 55.331371
123.037231 2.133333
123.053276 2.595238
125.185585 10.84431
126.04586 50.66901
126.069092 3.816886
126.153183 3.705128
126.258652 6.3375
126.338524 14.22438
126.383553 3.282051
126.402962 7.047563
126.430344 2.337121
126.508591 10.88776
126.528152 1.677696
126.626259 7.078947
126.672783 2.183712
126.934181 5.0375
126.955055 6.574405
127.05407 3621.2229
127.104156 19.985809
127.13549 3.374167
127.160728 6.921875
127.207619 21.696159
127.229591 4.919207
127.245155 1.520833
127.26622 17.694639
127.347832 10.94108
127.363045 4.37037
127.385216 14.34226
127.394203 17.677641
127.402542 6.708333
127.427795 16.31477
127.457008 28.62417
127.49263 5.06813
127.510117 24.674801
127.535851 2.839382
127.559456 1.668982
127.696983 8.234601
127.740273 8.7025
127.843155 8.29885
127.875916 6.958333
127.986855 4.463542
128.061829 3292.155029
128.11087 8.646213
128.122116 5.668982
128.149475 2.508152
128.227921 7.035088
128.240082 4.693452
128.267715 3.194079
128.279724 15.28625
128.310471 15.95876
128.323639 3.949074
128.354385 4.679487
128.366165 6.000393
128.373947 14.83674
128.38707 6.765932
128.41568 23.140329
128.478806 9.663276
128.492554 13.3009
128.532455 15.08403
128.550751 6.59058
128.570526 8.806685
128.581131 6.858135
128.603989 7.527412
128.645798 6.005357
128.713547 1.928571
128.918579 1.668056
128.969604 4.023809
129.050278 28.0947
129.070007 3848.743896
129.118073 28.548389
129.13382 1.168269
129.164932 10.48188
129.199295 3.109601
129.213196 16.62409
129.234772 4.388158
129.254898 3.920139
129.272079 24.089081
129.278275 5.524899
129.299347 11.98624
129.329712 8.003788
129.34671 3.553728
129.353638 4.907738
129.401718 5.186275
129.450409 5.416667
129.473892 6.357143
129.568115 4.630952
129.58902 3.168056
129.643631 1.901389
129.678101 1.502315
129.69249 3.574405
129.734268 2.851974
130.039368 57.830078
130.164597 4.666667
130.205566 7.167298
130.288513 7.578947
130.437332 8.027778
130.662445 5.221491
130.768173 4.127604
131.012711 3.406703
131.053299 30.17112
131.101593 2.006944
131.755447 10.89005
133.617706 7.633152
139.298721 9.514794
139.327438 4.669271
139.419861 6.020833
139.635666 17.493839
139.874237 16.80674
140.062363 122.938103
140.141342 12.04545
140.162292 5.675438
140.186996 3.204475
140.201248 13.35187
140.240265 15.79693
140.261444 9.235646
140.287125 5.835938
140.299728 15.09963
140.334732 13.92073
140.361557 4.761905
140.386627 57.105129
140.408234 3.224537
140.418869 23.21776
140.426178 4.689312
140.436539 18.22559
140.457108 16.10438
140.506287 13.66451
140.530258 3.645833
140.539062 62.115299
140.595581 11.28056
140.615707 3.169872
140.651489 11.38844
140.673264 6.575556
140.703613 8.004167
140.714737 2.041667
140.751877 7.344697
140.78035 11.7662
140.857269 2.770833
140.908752 10.21153
140.937912 9.981738
140.981705 29.837721
141.012177 9.197349
141.070038 16843.849609
141.125259 12.3138
141.206253 8.003289
141.245575 15.08571
141.262589 25.934641
141.278351 46.638401
141.297989 31.530991
141.308517 59.700272
141.330704 18.215691
141.355576 50.903141
141.371658 4.833796
141.415054 27.98245
141.42807 24.75506
141.443481 17.526699
141.470322 29.72262
141.499756 70.026909
141.545944 18.81954
141.576355 7.774167
141.596191 21.74758
141.620697 29.23307
141.640701 10.66801
141.66507 34.388279
141.682632 10.24833
141.699326 10.74747
141.713882 9.667075
141.729584 11.51925
141.736923 16.756639
141.763687 16.07485
141.825638 12.83472
141.840225 6.926282
141.881973 2.707108
141.902847 5.097884
141.939774 15.78316
141.958221 4.816919
142.041122 401.567993
142.077774 12030.94043
142.128952 111.865402
142.183807 16.662901
142.219238 39.05962
142.235443 14.34598
142.244965 24.946301
142.260742 15.93278
142.280884 26.690109
142.314377 33.95871
142.35408 39.797192
142.383362 35.528511
142.412598 43.854729
142.43103 10.72132
142.447617 33.036079
142.460388 35.38023
142.480728 13.7995
142.512115 36.901951
142.526947 36.904888
142.560776 22.45727
142.582855 18.663481
142.594467 6.6875
142.616699 13.33167
142.649017 6.308035
142.676224 11.68056
142.686356 17.14706
142.760742 9.296324
142.76915 2.347756
142.955322 13.26042
142.972809 5.541667
142.984543 3.386905
143.048401 1248.73999
143.177231 16.525709
143.248627 10.14135
143.260147 21.883011
143.713608 3.027778
143.785309 5.724085
143.91449 1.694445
143.947815 5.548214
144.102524 2.234722
144.219284 6.18109
144.248535 3.833333
144.369476 4.130401
144.424072 4.408333
144.520248 6.983948
144.60405 3.020833
144.889175 4.444444
145.065277 291.132111
145.114746 5.790668
145.186844 4.821047
145.227905 2.53125
146.070618 12.5744
146.947662 5.012703
149.323029 2.877717
149.378433 3.168269
149.92865 4.928442
150.021286 13.23157
150.228165 8.633333
150.264008 3.008152
150.54599 3.213542
151.026901 24.480829
151.054123 2067.837891
151.105286 5.515625
151.127792 8.06891
151.139816 21.51914
151.16629 2.707108
151.188797 10.6062
151.201767 6.047619
151.225876 18.34717
151.250366 12.88324
151.269669 9.826755
151.289185 11.02083
151.309769 14.30667
151.322388 11.05373
151.350601 28.543369
151.378906 6.844444
151.388412 10.27841
151.412476 6.82988
151.432999 7.947802
151.455933 6.881548
151.477936 5.449253
151.49173 6.336111
151.528915 4.453432
151.572372 4.609601
151.584747 5.192842
151.607758 20.661921
151.677368 4.24671
151.738861 3.833867
151.763901 6.388889
151.786011 7.00641
151.80394 7.055555
151.837448 2.511029
151.871872 9.34
151.918915 21.526171
152.000381 5.742284
152.062225 13698.230469
152.171997 5.0625
152.240784 50.96809
152.265427 42.460869
152.276367 5.273438
152.303146 21.758711
152.315582 115.178101
152.341934 45.233582
152.373642 8.728436
152.382233 98.518494
152.406494 38.597912
152.425171 12.80534
152.434647 66.378693
152.445419 17.672741
152.459641 17.84178
152.473709 25.00408
152.4814 18.249269
152.496506 15.04473
152.509064 17.77598
152.527985 41.216621
152.548126 24.856741
152.575684 5.205883
152.588074 9.67638
152.618515 64.60585
152.655914 16.599649
152.678833 7.202571
152.697693 45.832619
152.728745 13.44926
152.772751 22.242439
152.806595 76.715157
152.853867 9.735754
152.891174 7.34157
153.047424 53.98653
153.070175 29248.009766
153.215744 2.945833
153.255371 8.513984
153.328766 5.224856
153.416183 18.288561
153.439178 34.57164
153.470215 36.657791
153.491684 37.740311
153.527283 20.76425
153.538712 40.923248
153.562912 18.813551
153.593369 18.60947
153.625992 6.521719
153.64299 33.62175
153.658722 55.0965
153.705475 13.94651
153.726791 37.573879
153.760315 48.863079
153.788162 2.8
153.830002 48.968651
153.845993 9.044118
153.975433 17.52936
154.029419 50.625469
154.07811 15485.150391
154.174133 4.500992
154.202133 6.941154
154.281387 90.541779
154.355194 47.524979
154.393906 47.901211
154.402039 36.615379
154.435318 11.76023
154.448792 29.37336
154.488968 58.118912
154.524567 24.69109
154.556503 19.684139
154.581299 11.51325
154.601425 34.623791
154.685013 14.4289
154.698029 7.502083
154.718567 21.681259
154.728012 14.93137
154.744095 9.867045
154.816299 3.820076
154.875046 4.677696
154.883316 5.693333
154.922714 11.5291
155.049316 3987.730957
155.085297 5924.832031
155.13797 29.70219
155.151535 37.682411
155.195312 62.320351
155.229034 23.95759
155.245483 18.52083
155.26564 11.76852
155.315598 36.61441
155.339066 16.58387
155.361725 8.545455
155.414352 10.03617
155.429352 6.015783
155.449326 15.17633
155.459991 6.834723
155.493835 2.229167
155.504272 6.520833
155.532242 9.606061
155.542114 6.51856
155.576813 4.51796
155.604752 5.106692
155.615982 3.888889
155.634094 15.94198
155.676636 6.500563
155.733032 16.71488
155.871124 15.27903
155.926575 4.962963
155.986343 2.334326
155.998215 3.520833
156.121552 12.02837
156.247925 24.634451
156.302246 6.67647
156.379532 8.627604
156.393661 2.381944
156.424118 6.015625
156.450241 6.704527
156.467361 11.1852
156.582001 9.445513
156.602264 6.671297
156.670395 4.066123
156.763687 11.52401
156.781113 7.067935
156.846176 4.048611
156.885666 4.500772
156.916168 4.0
157.064941 450.908112
157.121811 14.86353
157.134552 4.600833
157.151596 2.673132
157.164398 14.80019
157.288345 8.744907
157.362228 4.027412
157.400269 4.349638
157.431778 3.033334
157.474472 3.856771
157.488846 5.483334
157.506317 8.660025
157.727386 4.615385
158.072861 1379.636963
158.143509 3.270833
158.176941 2.64881
158.274399 4.350134
158.287415 9.344826
158.300949 15.17207
158.354019 6.595833
158.366318 2.7075
158.419266 12.08531
158.545868 3.672024
158.558151 7.542253
158.56781 2.016667
158.589996 14.31751
158.629105 3.500718
158.648178 2.707108
158.656723 1.633333
158.681702 2.680556
158.788101 20.52137
158.843887 3.080128
158.940659 6.826666
159.07222 5.859509
159.080353 113.792
159.324356 2.333333
159.853928 1.666667
160.017273 2.942935
160.113693 3.020833
160.457092 3.500672
160.620178 3.551136
160.876007 13.66667
161.914627 7.68421
162.552704 1.834936
163.095642 3.05787
164.058624 13.21007
165.070114 163.900406
165.104126 3.367424
165.278351 3.276268
165.336609 4.008929
165.411499 2.592803
166.369019 4.066123
166.708328 0.84375
166.888062 3.047619
167.08252 34.316158
167.168167 6.533333
167.274918 7.763441
167.369278 1.690476
167.418793 8.674933
167.707001 6.33716
167.891602 5.503788
168.014236 10.16329
168.056549 203.122498
168.084229 40.347809
168.104004 9.841485
168.117233 9.342709
168.127106 18.40255
168.159119 11.77463
168.191055 75.662453
168.225372 12.41423
168.240906 8.219298
168.266434 5.675595
168.277969 49.498131
168.293335 2.040064
168.315765 9.600962
168.330063 14.56028
168.393265 10.2963
168.407181 4.583333
168.424103 7.619048
168.437637 2.847222
168.490891 6.018055
168.555054 2.008929
168.602539 8.25
168.64534 5.690104
168.810486 8.011111
168.850037 8.025901
168.896225 8.083333
168.91658 6.690407
168.94371 4.358232
168.975418 31.820641
169.000427 48.62698
169.01947 11.16726
169.064835 12741.110352
169.199554 23.31324
169.218811 41.90551
169.231445 14.43728
169.257446 34.503849
169.29718 27.32778
169.309799 19.61396
169.327652 30.578291
169.34671 45.299252
169.370575 15.74339
169.384674 23.610081
169.40863 73.166077
169.434326 17.56447
169.44635 46.035358
169.455048 3.176535
169.512802 13.49782
169.538818 89.588364
169.563797 6.354167
169.577835 8.979167
169.598343 8.588644
169.61058 58.904369
169.658249 23.461611
169.677017 9.669465
169.686798 15.83333
169.737411 8.690476
169.781372 11.86822
169.806885 13.17466
169.858551 13.83105
169.873489 70.005203
169.917328 4.512821
169.962997 2.632675
170.073105 27361.429688
170.392197 6.273438
170.434052 67.794388
170.457367 3.684627
170.478546 32.852699
170.502197 10.30488
170.540222 27.089069
170.553131 25.199301
170.569656 26.1752
170.58844 73.085274
170.635117 42.73819
170.646164 9.737554
170.659576 18.259251
170.674362 50.63192
170.703094 8.222686
170.712189 17.73391
170.728531 28.88343
170.758774 31.44491
170.79158 55.682941
170.807236 8.197349
170.820923 5.841667
170.893463 15.34247
170.914673 9.95958
170.956467 6.201923
170.9767 16.924601
171.015396 7.21488
171.201477 10.8155
171.326035 3.07337
171.348999 5.835648
171.422073 12.53344
171.506104 8.354167
171.51709 8.579009
171.562866 13.42413
171.576675 11.51776
171.646164 7.765932
171.739761 5.667298
171.84903 13.42465
171.877441 3.167892
171.92247 6.446908
171.934174 10.32521
172.390335 11.11801
172.402252 4.503788
172.432709 9.05609
172.860031 9.95045
172.905334 3.291667
173.120224 3.551136
173.148529 5.434166
173.610352 2.675595
173.669876 4.547619
173.834274 4.201389
174.509949 6.028602
175.52597 7.765351
177.067535 26.700199
179.213837 6.296371
179.326843 5.932099
180.105225 2.0625
181.032257 8.8528
181.059387 4.349638
181.078156 34.935501
181.771301 7.535
182.541641 3.502778
182.710754 9.669118
183.051331 15.27491
183.079926 289.126495
183.157776 2.604167
183.228531 2.001389
183.369827 2.86218
183.388672 4.344445
184.003555 7.390476
184.032318 3.0625
184.088135 747.023376
184.134644 7.510965
184.196594 3.266667
184.274948 7.223558
184.322998 4.506667
184.351013 3.940025
184.390869 24.4865
184.445496 2.834105
184.488022 7.445585
184.516373 2.501225
184.568451 6.522059
184.714905 4.033333
184.827972 13.19922
184.842575 8.168103
184.966309 5.002083
185.013657 10.3766
185.096222 2677.670898
185.156174 18.173361
185.174728 19.821581
185.202225 5.195652
185.221161 4.183468
185.23381 10.08055
185.254303 3.891523
185.284988 8.334936
185.299118 6.040471
185.345825 13.14423
185.372314 2.169643
185.486618 11.31985
185.543259 3.694257
185.561172 4.731771
185.614334 4.666667
185.627533 1.520833
185.70285 18.173731
185.74086 6.595238
186.055389 3.176471
186.099075 20.665689
186.411453 5.670076
186.639511 3.195513
186.844803 4.534722
187.816223 6.615
190.614731 3.680021
191.148239 4.667298
196.076782 11.81349
198.068253 5.520833
200.71402 7.712121
229.170914 1.533333
252.360779 4.592672
287.303528 6.938802
314.346649 3.891204
328.530609 7.33507
395.627716 6.214881
683.686218 22.986959
810.0401 2.006944
925.74292 3.334326
987.3349 4.387821
1015.979553 2.194444
1178.476074 4.506049
1229.937134 2.673611
1238.738525 2.0625
1290.609741 13.73284
1389.843506 2.296875
