>compound Piroxicam
>formula C15H13N3O4S 
>ionization [M+H]+
>parentmass 332.071
#inchi InChI=1S/C15H13N3O4S/c1-18-13(15(20)17-12-8-4-5-9-16-12)14(19)10-6-2-3-7-11(10)23(18,21)22/h2-9,19H,1H3,(H,16,17,20)
#inchikey QYSPLQLAKJAUJT
#Ion_Source LC-ESI
#Instrument qTof
#Compound_Source Isolated
#PI Sirenas
#Data_Collector Ed Esquenazi 
#Scan -1
#Precursor_MZ 332.071
#ExactMass 0.0
#Charge 1
#CAS_Number N/A
#Pubmed_ID N/A
#Smiles N/A
#INCHI_AUX N/A
#Library_Class 3
#SpectrumID CCMSLIB00000006205
#IonMode Positive
#UpdateWorkflowName UPDATE-SINGLE-ANNOTATED-BRONZE
#LibraryQualityString Bronze
#TaskID d19310cd93df49b68e9fcbec27720eb5
##Scan# 3
#SpectrumFile Piroxicam.mgf
#LibraryName fda_library.mgf
#MQScore -1
#Organism fda_library
#TIC_Query 0
#RT_Query -1
#MZErrorPPM -1
#SharedPeaks 0
#MassDiff 0
#LibMZ -1
#SpecMZ 332.071
#SpecCharge 0
#internalFilename spec-00000.mgf

>collision 10
103.053452 49.852261
104.021896 22.814251
104.049919 79.568993
104.579613 11.53199
105.033829 179.699402
105.044449 202.695297
105.240372 12.66461
105.357857 15.73529
105.371506 10.6297
107.01033 28.68224
107.060768 155.652603
107.085861 14.14934
109.010185 202.938202
116.04789 24.61635
117.057472 79.960587
120.021255 23.933611
120.574013 31.449961
120.627319 16.17053
120.995323 12.91355
121.007957 15.18809
121.039658 9680.236328
121.086212 76.79187
121.104805 18.69145
121.144806 11.94233
121.151787 10.06268
121.178391 30.07905
121.19928 10.98214
121.21759 17.502819
121.230827 38.218712
121.252235 22.08757
121.262947 20.522221
121.294937 34.800369
121.308395 28.749281
121.340744 10.35417
121.356537 21.56134
121.374977 12.47776
121.405487 10.30341
121.426735 10.80693
121.446823 11.95694
121.520576 13.37174
121.554932 11.42004
121.758392 26.264669
122.537918 10.57945
125.001656 44.855541
135.053391 46.678139
135.995605 77.352448
136.018585 27.189091
136.087372 105.384804
137.004227 234.834503
140.995056 27.232321
146.059311 69.274361
148.050064 83.56588
148.352661 13.39372
149.059143 99.692993
151.991684 44.25103
153.0 512.295227
162.065262 34.188969
163.073364 37.7313
164.015549 106.534599
164.082001 272.767914
168.99437 471.537292
174.053528 30.203951
180.344666 19.760031
181.084122 11.33732
181.999725 25.392429
182.026123 27.92425
197.069458 45.77216
209.166 16.57163
210.02356 131.842102
213.052917 11.24872
230.01088 11.00439
241.050125 16.714911
245.033585 79.664253
1127.715698 19.195499
