>compound MLS001077357-01!6-ETHOXY-2-BENZOTHIAZOLESULFONAMIDE
>formula C9H10N2O3S2
>ionization [M+H]+
>parentmass 259.021
#inchi InChI=1S/C9H10N2O3S2/c1-2-14-6-3-4-7-8(5-6)15-9(11-7)16(10,12)13/h3-5H,2H2,1H3,(H2,10,12,13)
#inchikey OUZWUKMCLIBBOG
#Ion_Source LC-ESI
#Instrument qTof
#Compound_Source NIH Pharmacologically Active Library
#PI Dorrestein
#Data_Collector VP/LMS
#Scan -1
#Precursor_MZ 259.021
#ExactMass 258.013
#Charge 1
#CAS_Number N/A
#Pubmed_ID N/A
#Smiles CCOc1ccc2nc(sc2c1)S(=O)(=O)N
#INCHI_AUX N/A
#Library_Class 1
#SpectrumID CCMSLIB00000085904
#IonMode Positive
#UpdateWorkflowName UPDATE-SINGLE-ANNOTATED-GOLD
#LibraryQualityString Gold
#TaskID d252d724072548979f1f6f1ced849daf
##Scan# 1773
#SpectrumFile p4-G09_GG9_01_18405.mzXML
#LibraryName Pharm_Active_Library.mgf
#MQScore -1
#Organism Pharm_Active_Library
#TIC_Query 0
#RT_Query -1
#MZErrorPPM -1
#SharedPeaks 0
#MassDiff 0
#LibMZ -1
#SpecMZ 259.021
#SpecCharge 0
#internalFilename spec-00000.mgf

>collision 10
44.959526 172.0
45.101765 152.0
45.192047 172.0
45.415775 196.0
45.473473 188.0
45.684441 196.0
45.850067 192.0
46.122715 184.0
46.306736 184.0
46.32299 156.0
46.432785 184.0
46.616066 156.0
46.914154 184.0
46.959152 28.0
47.183109 224.0
47.296654 136.0
47.770084 80.0
48.811588 104.0
48.844967 164.0
49.400181 204.0
49.423965 140.0
49.526169 96.0
49.582214 204.0
49.678967 236.0
49.817951 96.0
49.993713 224.0
50.351814 108.0
50.430935 180.0
51.255508 168.0
51.343895 104.0
51.363865 132.0
52.068733 164.0
52.119812 116.0
52.368698 164.0
52.385983 180.0
52.677391 216.0
52.943535 112.0
53.08556 164.0
53.805836 204.0
53.966553 160.0
54.287247 152.0
54.716316 212.0
54.835636 204.0
55.048084 164.0
55.147072 172.0
55.204731 196.0
55.250587 144.0
55.5009 236.0
55.585453 164.0
55.641857 220.0
55.994774 108.0
56.064312 152.0
56.129906 192.0
56.189571 140.0
56.240311 124.0
56.325424 212.0
56.533253 212.0
56.799953 68.0
56.862972 176.0
57.442287 188.0
57.609859 196.0
57.744392 140.0
58.039703 208.0
58.089756 144.0
58.135273 116.0
58.155006 180.0
58.203587 200.0
58.221809 152.0
58.271938 168.0
58.295807 192.0
58.567074 148.0
58.658501 176.0
58.692043 40.0
58.983654 124.0
59.158047 160.0
59.173355 240.0
59.723927 152.0
59.887455 108.0
59.973743 148.0
60.010742 48.0
60.158855 168.0
60.172752 100.0
60.263046 208.0
60.443249 104.0
60.522194 148.0
60.653881 108.0
61.112034 144.0
61.356564 180.0
61.378395 144.0
61.496964 356.0
61.815792 148.0
61.945297 140.0
61.986485 164.0
63.028221 188.0
63.085121 84.0
63.165771 48.0
63.181591 156.0
63.312973 188.0
63.395355 156.0
63.986259 128.0
64.078636 64.0
64.868141 136.0
65.375702 124.0
65.58992 144.0
65.890083 72.0
66.142372 176.0
66.312447 160.0
66.478806 188.0
66.495781 128.0
66.771935 52.0
66.854904 164.0
66.874435 176.0
67.169373 156.0
67.353828 224.0
67.388138 132.0
67.443703 120.0
67.464958 80.0
67.584351 140.0
68.153336 160.0
68.173058 176.0
68.378639 68.0
68.41156 168.0
68.507072 96.0
68.713158 92.0
68.787422 184.0
69.159355 172.0
69.550545 168.0
69.942841 188.0
70.214432 192.0
70.311195 152.0
70.441437 112.0
70.702278 128.0
70.759193 140.0
71.10955 148.0
71.364906 168.0
71.417038 232.0
71.457413 168.0
71.472557 152.0
71.507896 192.0
72.042442 144.0
72.714691 108.0
72.92849 156.0
73.027328 128.0
73.175377 148.0
73.34404 144.0
73.757126 216.0
73.859726 140.0
74.030884 52.0
74.238251 128.0
74.361778 196.0
74.468231 120.0
74.719208 140.0
74.746742 176.0
74.982681 152.0
75.022324 120.0
75.149956 152.0
75.384796 192.0
75.75161 184.0
75.916267 64.0
76.107155 176.0
76.162727 156.0
76.393929 144.0
76.496605 68.0
76.581932 112.0
76.627228 192.0
77.014511 128.0
77.555458 184.0
77.772697 140.0
78.1875 140.0
78.742874 168.0
78.80294 172.0
78.870094 232.0
78.949654 180.0
79.041649 108.0
79.064651 204.0
79.245277 192.0
79.280716 224.0
79.576958 156.0
80.073105 164.0
80.121201 248.0
80.292328 200.0
80.397591 192.0
80.497559 228.0
81.242165 132.0
81.569 128.0
81.615746 232.0
81.730873 56.0
81.81546 188.0
81.984787 200.0
82.204803 220.0
83.145882 88.0
83.420158 84.0
83.986488 184.0
84.198212 220.0
84.300522 104.0
84.31514 224.0
84.386436 196.0
84.527283 164.0
84.737854 184.0
84.787331 108.0
84.871765 144.0
84.891296 272.0
85.179993 176.0
85.26268 120.0
85.275543 168.0
85.354599 208.0
85.604866 192.0
85.744881 156.0
85.986496 176.0
86.075111 148.0
86.145294 196.0
86.254326 164.0
86.285751 148.0
86.300545 176.0
86.450378 164.0
87.149483 244.0
87.597855 96.0
87.700348 120.0
88.131447 168.0
88.322144 132.0
89.182816 92.0
89.267426 108.0
89.545959 120.0
89.766464 144.0
89.823044 196.0
89.872101 120.0
89.909843 176.0
90.174255 140.0
90.908035 208.0
91.07618 116.0
91.294754 188.0
91.719337 116.0
91.894791 56.0
92.045586 192.0
92.079964 132.0
92.372421 192.0
92.987503 196.0
93.477577 148.0
93.606552 148.0
93.673965 168.0
93.988235 280.0
94.113701 172.0
94.179359 120.0
94.691933 164.0
94.841125 204.0
94.95668 208.0
94.994629 2728.0
95.030258 152.0
95.127037 216.0
95.149574 196.0
95.785507 144.0
95.97213 196.0
95.978142 148.0
95.998497 312.0
96.120857 172.0
96.280937 48.0
96.339539 52.0
96.497849 180.0
96.521309 92.0
96.562378 188.0
96.824646 144.0
96.924553 100.0
96.989845 292.0
97.010796 156.0
97.442566 160.0
97.466141 136.0
97.613571 140.0
97.654877 60.0
97.688316 76.0
97.723732 108.0
97.765053 64.0
98.005302 224.0
98.129478 180.0
98.170883 172.0
98.208359 132.0
98.383987 44.0
98.640808 120.0
98.771317 160.0
99.77449 192.0
100.001556 112.0
100.037392 196.0
100.059288 144.0
100.089157 64.0
100.219711 200.0
100.390068 228.0
100.513748 200.0
100.594994 164.0
100.75135 176.0
100.897247 168.0
100.989235 140.0
101.231407 40.0
101.435776 188.0
101.596207 164.0
101.948441 248.0
102.55542 152.0
102.621948 136.0
102.813591 120.0
102.855972 244.0
103.254021 188.0
103.48674 184.0
103.535347 272.0
103.780548 120.0
104.395836 224.0
104.56266 152.0
104.968079 176.0
104.990509 192.0
105.691208 176.0
105.807877 136.0
105.895927 52.0
105.992218 184.0
106.028694 13124.0
106.061897 148.0
106.098801 124.0
106.160316 92.0
106.291603 208.0
106.542099 84.0
106.691498 156.0
106.725029 236.0
106.973976 88.0
106.99662 292.0
107.034019 580.0
107.212906 176.0
107.324226 56.0
107.551163 228.0
107.606903 100.0
107.865143 68.0
108.028519 156.0
108.192009 172.0
108.521439 168.0
108.973923 172.0
109.010483 312.0
109.201241 172.0
109.35865 136.0
109.439842 180.0
109.773247 176.0
110.005157 188.0
110.987053 164.0
111.02594 120.0
111.55928 180.0
111.613945 160.0
111.656006 76.0
111.996986 172.0
112.142372 184.0
112.279419 212.0
112.319496 72.0
112.359581 120.0
112.576996 204.0
113.027267 148.0
113.139442 152.0
113.363968 48.0
113.408478 124.0
113.493279 124.0
113.877396 52.0
114.270676 132.0
114.294083 172.0
114.311111 136.0
114.916275 164.0
115.084892 188.0
115.202362 160.0
115.279282 136.0
115.700661 192.0
116.054192 208.0
116.174294 136.0
116.434021 36.0
116.49733 144.0
117.017464 168.0
117.05719 324.0
117.393875 96.0
117.467209 244.0
117.642014 180.0
117.823425 252.0
118.024437 200.0
118.188828 184.0
118.448631 168.0
118.715225 112.0
119.008171 120.0
119.334099 100.0
119.355843 132.0
119.516808 224.0
119.767174 200.0
119.928421 296.0
119.948036 104.0
119.991638 192.0
120.716583 124.0
120.81282 160.0
120.99572 324.0
121.040878 208.0
121.152161 160.0
121.540245 180.0
121.663155 164.0
121.779297 180.0
121.978722 204.0
122.006584 9016.0
122.091637 60.0
122.108192 68.0
122.186226 88.0
122.243431 80.0
122.287453 180.0
122.588615 188.0
122.606812 40.0
122.686165 280.0
122.818474 256.0
122.867012 116.0
122.930138 164.0
122.989929 17868.0
123.045776 48.0
123.129692 60.0
123.189331 84.0
123.22142 84.0
123.279922 156.0
123.363914 132.0
123.381599 40.0
123.496597 152.0
123.518715 72.0
123.631554 152.0
123.649261 48.0
123.695625 76.0
123.720093 40.0
123.759003 168.0
123.9571 136.0
123.991524 1588.0
124.033661 132.0
124.056458 212.0
124.114487 64.0
124.205414 120.0
124.22908 88.0
124.288101 148.0
124.406158 104.0
124.620567 96.0
124.707245 108.0
124.756149 44.0
124.990135 492.0
125.134369 140.0
125.183357 88.0
125.86573 136.0
126.001183 268.0
126.017616 84.0
126.541 140.0
126.570107 148.0
127.658478 204.0
128.079361 148.0
128.835083 200.0
129.090485 212.0
129.316742 196.0
129.362 140.0
130.587357 40.0
131.351837 188.0
131.370956 76.0
131.432556 208.0
131.87561 196.0
132.127151 184.0
132.25531 52.0
132.461395 84.0
132.628677 72.0
132.96814 180.0
133.000275 184.0
133.055374 340.0
133.356308 180.0
133.372391 68.0
133.791077 184.0
133.850937 48.0
134.005219 928.0
134.060028 420.0
134.145859 172.0
134.640335 132.0
134.785187 148.0
134.822159 48.0
134.967789 108.0
135.012955 384.0
135.065887 180.0
135.185242 140.0
135.820084 124.0
136.003555 168.0
136.140381 168.0
137.220078 160.0
137.831635 144.0
137.862015 120.0
138.000168 1732.0
138.032669 132.0
138.049026 160.0
138.521835 164.0
138.99646 144.0
139.516876 80.0
139.806198 112.0
139.987457 160.0
140.008926 180.0
140.041626 144.0
140.659424 200.0
141.446609 120.0
141.707108 132.0
141.979721 144.0
142.02005 252.0
142.141037 28.0
142.285828 136.0
142.466324 168.0
143.048965 156.0
143.115631 192.0
143.597015 104.0
143.628036 168.0
143.95787 676.0
143.986053 44.0
144.110275 48.0
145.521057 148.0
145.588287 160.0
145.612305 72.0
145.950089 160.0
146.377075 32.0
147.351562 148.0
147.748077 184.0
147.910217 132.0
147.946533 220.0
148.210526 156.0
148.992752 1716.0
149.030685 216.0
149.074417 40.0
149.285919 80.0
149.402679 40.0
149.604675 136.0
149.762955 144.0
149.974884 156.0
150.000687 29864.0
150.033905 168.0
150.240753 60.0
150.282227 60.0
150.316391 44.0
150.531891 72.0
150.626465 84.0
150.802399 112.0
150.870834 148.0
150.93074 96.0
151.002625 2176.0
151.035904 148.0
151.102615 52.0
151.134995 144.0
151.216736 188.0
151.357742 100.0
151.534103 64.0
151.580658 44.0
151.68605 88.0
151.725281 80.0
151.769409 108.0
151.901855 212.0
151.995361 1576.0
152.069489 112.0
152.161987 52.0
152.181625 84.0
152.270035 68.0
152.52066 40.0
152.646057 60.0
153.000992 144.0
153.24913 60.0
153.298416 64.0
153.58194 36.0
153.821304 52.0
153.995865 652.0
154.073196 196.0
154.904434 176.0
155.009735 196.0
156.185333 200.0
156.411774 192.0
157.019745 40.0
157.966431 84.0
157.996445 124.0
158.018967 144.0
158.838196 128.0
159.001282 40.0
159.433258 124.0
160.014343 168.0
161.827194 60.0
162.663834 52.0
162.976227 40.0
163.039749 36.0
164.869629 52.0
165.401642 160.0
165.457962 100.0
165.642349 144.0
165.995941 3344.0
166.075562 116.0
166.488785 72.0
166.993042 140.0
167.018951 204.0
167.785675 104.0
168.008774 828.0
168.335266 96.0
169.009949 372.0
169.972275 1012.0
170.090698 52.0
170.334793 48.0
170.966614 124.0
171.96553 164.0
172.043137 96.0
173.639343 60.0
177.84256 100.0
177.972641 140.0
178.031967 4524.0
178.107025 80.0
178.159302 116.0
178.201065 60.0
178.235611 44.0
178.278137 52.0
179.034592 320.0
179.398727 48.0
180.031662 400.0
180.167328 76.0
181.02594 92.0
181.744354 152.0
181.990341 1616.0
182.026199 196.0
182.993698 188.0
183.991669 176.0
184.116013 176.0
185.956375 180.0
185.965149 132.0
185.971634 124.0
186.930054 48.0
187.960114 124.0
188.061096 84.0
189.088791 48.0
190.709808 68.0
194.029999 188.0
196.040497 492.0
198.008636 180.0
198.039764 220.0
208.198334 64.0
211.259506 104.0
226.519852 84.0
229.968887 116.0
230.521576 20.0
231.032578 164.0
232.035034 164.0
241.997772 168.0
242.867233 72.0
245.12439 116.0
245.436111 108.0
259.178131 160.0
283.325226 40.0
286.005035 100.0
314.982422 160.0
317.587677 28.0
349.524109 76.0
381.041321 76.0
395.556396 64.0
398.952209 152.0
437.705383 68.0
471.086456 64.0
559.300293 56.0
584.194458 40.0
745.816956 48.0
767.028931 144.0
865.879456 116.0
873.616028 200.0
879.845398 152.0
880.524475 168.0
906.505737 224.0
907.968567 76.0
915.209961 148.0
917.403076 120.0
923.659363 116.0
936.753418 88.0
950.191162 256.0
952.720642 152.0
968.537903 216.0
982.637634 280.0
984.928772 148.0
988.586365 168.0
990.771667 140.0
993.235352 204.0
995.677002 108.0
997.857544 220.0
1015.381409 176.0
1022.179077 188.0
1029.363403 44.0
1040.4021 160.0
1051.073853 112.0
1053.494995 112.0
1054.373901 128.0
1061.054199 120.0
1077.769043 48.0
1079.867554 160.0
1084.156006 116.0
1084.817993 112.0
1085.040894 216.0
1087.829102 192.0
1088.873169 80.0
1089.898071 196.0
1092.751709 184.0
1094.37085 188.0
1098.351562 140.0
1102.51123 164.0
1105.328369 148.0
1105.692383 200.0
1106.546265 216.0
1107.685425 168.0
1112.845215 148.0
1116.513428 164.0
1119.155273 108.0
1119.421631 152.0
1119.548218 152.0
1123.801147 108.0
1128.871216 164.0
1129.633667 124.0
1133.463501 124.0
1135.702759 160.0
1137.118408 164.0
1142.077148 164.0
1142.581787 136.0
1146.27832 128.0
1148.38855 148.0
1148.597656 40.0
1150.304932 192.0
1150.986816 148.0
1151.203003 112.0
1153.243408 152.0
1156.083984 212.0
1159.965088 176.0
1169.692749 136.0
1179.461182 124.0
1179.509033 128.0
1180.623535 80.0
1182.292725 172.0
1183.031982 212.0
1183.812622 208.0
1185.148438 192.0
1185.758301 136.0
1186.484985 148.0
1188.117188 44.0
1190.485352 104.0
1190.986694 88.0
1191.172241 204.0
1193.30957 64.0
1193.357666 120.0
1194.912109 160.0
1196.81189 184.0
1197.011475 148.0
1197.06665 188.0
1203.548706 184.0
1205.495728 228.0
1207.107422 192.0
1208.816162 156.0
1210.283691 176.0
1212.209351 152.0
1216.697144 168.0
1219.385498 152.0
1221.026367 180.0
1221.269775 172.0
1223.552368 36.0
1225.795166 164.0
1232.319458 88.0
1238.959229 164.0
1239.9823 76.0
1244.52124 100.0
1249.391968 116.0
1252.256958 160.0
1254.610596 152.0
1259.628174 168.0
1261.981689 180.0
1264.245361 140.0
1264.35144 180.0
1264.669922 184.0
1266.588867 132.0
1267.070679 144.0
1267.587891 36.0
1268.005981 88.0
1269.963013 148.0
1271.928467 144.0
1276.525391 52.0
1278.076172 164.0
1279.06543 264.0
1279.805908 140.0
1279.934082 148.0
1281.380005 52.0
1285.144653 164.0
1286.21521 188.0
1289.286499 108.0
1289.736816 100.0
1292.619019 200.0
1300.567261 132.0
1303.820923 164.0
1307.560913 180.0
1308.755981 180.0
1310.924194 120.0
1311.371094 168.0
1311.93335 188.0
1313.15918 156.0
1315.19397 192.0
1316.060303 112.0
1316.161377 60.0
1318.791138 148.0
1320.237183 164.0
1323.573242 160.0
1324.31189 188.0
1324.688599 176.0
1324.876953 60.0
1325.442139 200.0
1326.580078 124.0
1330.040283 156.0
1331.274536 160.0
1332.000854 172.0
1334.915405 140.0
1335.329956 192.0
1337.15625 120.0
1343.962769 164.0
1344.568481 152.0
1344.772827 176.0
1349.77002 240.0
1350.208862 204.0
1350.501343 152.0
1353.575195 48.0
1355.150024 48.0
1356.52063 36.0
1356.953125 172.0
1359.204956 196.0
1359.351807 168.0
1359.975586 196.0
1360.489502 168.0
1361.275146 120.0
1362.259399 148.0
1365.015625 184.0
1365.11853 220.0
1365.420044 52.0
1365.72168 132.0
1367.038574 192.0
1369.276733 144.0
1370.352295 136.0
1371.605103 144.0
1374.606934 196.0
1384.439209 176.0
1385.024292 124.0
1385.446533 176.0
1385.698486 140.0
1387.388306 188.0
1389.776611 128.0
1391.394653 184.0
1399.402222 160.0
1399.662842 148.0
1401.607056 224.0
1403.74646 160.0
1404.231201 272.0
1406.663818 120.0
1410.129761 200.0
1410.712769 84.0
1411.310913 168.0
1412.559937 268.0
1412.687134 192.0
1415.411499 152.0
1417.636353 192.0
1418.753174 212.0
1420.275513 140.0
1420.673096 204.0
1428.606445 168.0
1431.790527 56.0
1432.558716 96.0
1436.622192 156.0
1437.814453 180.0
1439.686768 152.0
1439.815186 228.0
1439.988892 116.0
1441.190063 240.0
1441.764404 172.0
1442.57312 228.0
1444.418335 208.0
1445.356445 164.0
1446.945923 156.0
1447.88501 80.0
1450.370239 204.0
1452.478271 68.0
1454.800415 140.0
1455.119263 200.0
1455.179932 64.0
1455.392578 176.0
1458.667114 132.0
1459.34375 108.0
1460.256348 220.0
1461.739868 180.0
1462.333496 160.0
1463.071899 212.0
1464.66748 168.0
1465.516724 164.0
1466.835205 192.0
1469.062012 168.0
1469.680054 204.0
1472.222046 188.0
1473.398438 180.0
1473.459595 136.0
1474.812134 288.0
1479.516846 188.0
1479.861328 164.0
1479.991577 164.0
1483.592651 156.0
1484.528076 148.0
1485.647949 72.0
1488.057861 188.0
1490.000977 204.0
1491.238281 76.0
1491.338135 52.0
1492.891235 108.0
1494.722168 228.0
1495.314697 60.0
1495.468628 180.0
1496.022827 188.0
1498.834229 124.0
1501.663574 152.0
