>compound MLS001146630-01![4-[(E)-3-[(2-hydroxybenzoyl)amino]-3-oxoprop-1-enyl]-2-methoxyphenyl] acetate
>formula C19H17NO6
>ionization [M+H]+
>parentmass 356.113
#inchi InChI=1S/C19H17NO6/c1-12(21)26-16-9-7-13(11-17(16)25-2)8-10-18(23)20-19(24)14-5-3-4-6-15(14)22/h3-11,22H,1-2H3,(H,20,23,24)/b10-8+
#inchikey NISZLIJBKRGIAU
#Ion_Source LC-ESI
#Instrument qTof
#Compound_Source NIH Natural Product Library
#PI Dorrestein
#Data_Collector VVP/LMS
#Scan -1
#Precursor_MZ 356.113
#ExactMass 355.106
#Charge 1
#CAS_Number N/A
#Pubmed_ID N/A
#Smiles COc1cc(/C=C/C(=O)NC(=O)c2ccccc2O)ccc1OC(=O)C
#INCHI_AUX N/A
#Library_Class 1
#SpectrumID CCMSLIB00000079823
#IonMode Positive
#UpdateWorkflowName UPDATE-SINGLE-ANNOTATED-GOLD
#LibraryQualityString Gold
#TaskID b1d8e8f6646f4e71acdff9ca3d919d08
##Scan# 2070
#SpectrumFile p1-E11_GE11_01_17931.mzXML
#LibraryName NIH_Natural_Products_Library.mgf
#MQScore -1
#Organism NIH_Natural_Products_Library
#TIC_Query 0
#RT_Query -1
#MZErrorPPM -1
#SharedPeaks 0
#MassDiff 0
#LibMZ -1
#SpecMZ 356.113
#SpecCharge 0
#internalFilename spec-00000.mgf

>collision 10
95.659111 176.0
96.967781 156.0
97.584152 72.0
101.001137 56.0
101.341461 208.0
103.326622 152.0
103.545235 96.0
103.59182 136.0
104.704887 124.0
105.341255 172.0
106.043083 196.0
107.047676 108.0
109.30191 184.0
112.470711 224.0
113.471306 228.0
114.044456 136.0
116.405174 208.0
117.032448 1140.0
117.084717 56.0
117.414452 92.0
118.036385 136.0
120.335213 128.0
120.800705 136.0
120.816017 144.0
120.840088 120.0
120.892601 196.0
120.95607 116.0
120.980148 84.0
120.995476 68.0
121.028496 1180.0
121.061157 176.0
122.038712 168.0
122.956177 48.0
123.066551 176.0
123.446609 112.0
125.057259 168.0
127.187355 144.0
130.403732 104.0
132.054413 200.0
133.237213 96.0
134.040192 88.0
135.028244 132.0
135.653397 156.0
136.684586 72.0
137.269257 160.0
138.052505 256.0
141.773438 176.0
143.177444 204.0
144.619492 164.0
144.995514 164.0
145.028519 3812.0
145.290436 100.0
145.309631 60.0
145.6241 108.0
146.031219 320.0
146.514114 80.0
147.036911 156.0
147.138733 76.0
147.890503 72.0
149.058441 900.0
149.292801 184.0
149.996429 52.0
150.067123 96.0
151.110016 132.0
152.075516 164.0
154.075012 76.0
160.635818 68.0
160.984116 136.0
161.059875 164.0
162.023666 160.0
164.888824 156.0
170.977722 140.0
172.083267 136.0
176.077301 160.0
176.603241 184.0
176.640274 84.0
176.764618 84.0
176.910187 52.0
176.944611 52.0
177.010803 164.0
177.054047 6924.0
177.172363 48.0
177.217407 60.0
177.543442 52.0
177.569962 52.0
177.800781 72.0
178.057205 532.0
178.167206 92.0
178.265518 52.0
178.446259 56.0
179.060944 132.0
179.223434 92.0
179.271408 84.0
179.972946 136.0
180.154541 76.0
183.905807 48.0
187.488541 92.0
194.081406 220.0
195.196808 40.0
215.950378 192.0
219.450775 96.0
244.206253 72.0
249.185974 104.0
262.114532 216.0
273.61908 152.0
282.600311 176.0
299.125824 152.0
302.166138 164.0
311.210724 192.0
339.020111 116.0
354.22644 136.0
740.673218 152.0
743.943054 48.0
792.173035 64.0
845.263245 76.0
969.683838 164.0
990.049866 188.0
1009.659729 124.0
1071.896606 72.0
1073.278442 60.0
1074.857056 104.0
1090.383789 140.0
1091.665649 184.0
1180.911865 124.0
1193.303101 32.0
1195.758911 160.0
1197.858887 144.0
1198.031128 100.0
1201.560791 48.0
1209.660034 168.0
1220.858398 156.0
1243.023682 176.0
1244.778564 144.0
1265.416748 112.0
1276.905151 152.0
1304.490845 144.0
1325.080078 180.0
1335.227783 152.0
1349.395874 176.0
1364.168091 100.0
1364.292969 148.0
1372.796997 188.0
1438.721436 192.0
1444.661255 236.0
1445.266479 172.0
1473.512329 160.0
1479.707153 180.0
1486.620972 236.0
1502.015991 40.0
