>compound Rolipram
>formula C16H21NO3 
>ionization [M+H]+
>parentmass 276.159241
#inchi InChI=1S/C16H21NO3/c1-19-14-7-6-11(12-9-16(18)17-10-12)8-15(14)20-13-4-2-3-5-13/h6-8,12-13H,2-5,9-10H2,1H3,(H,17,18)
#inchikey HJORMJIFDVBMOB
#Ion_Source LC-ESI
#Instrument qTof
#Compound_Source Isolated
#PI Sirenas
#Data_Collector Ed Esquenazi 
#Scan -1
#Precursor_MZ 276.16
#ExactMass 0.0
#Charge 1
#CAS_Number N/A
#Pubmed_ID N/A
#Smiles N/A
#INCHI_AUX N/A
#Library_Class 3
#SpectrumID CCMSLIB00000004962
#IonMode Positive
#UpdateWorkflowName UPDATE-SINGLE-ANNOTATED-BRONZE
#LibraryQualityString Bronze
#TaskID d19310cd93df49b68e9fcbec27720eb5
##Scan# 5
#SpectrumFile Rolipram.mgf
#LibraryName fda_library.mgf
#MQScore -1
#Organism fda_library
#TIC_Query 0
#RT_Query -1
#MZErrorPPM -1
#SharedPeaks 0
#MassDiff 0
#LibMZ -1
#SpecMZ 276.16
#SpecCharge 0
#internalFilename spec-00000.mgf

>collision 10
102.698349 19.148279
102.929024 9.950658
103.053947 3603.837891
103.098694 19.83173
103.125404 39.525002
103.160675 7.533088
103.167747 5.043269
103.224503 4.620193
103.396851 31.745001
103.412971 13.72454
103.443718 10.47115
104.539764 18.005211
104.888603 6.640625
105.069809 814.19458
105.942245 13.3
106.066574 296.160797
107.047371 163.603394
109.028099 64.847107
109.064056 136.410004
109.089005 5.625
110.031937 70.900322
116.045517 43.200829
116.164413 9.516071
118.036827 75.130127
119.612961 5.033088
120.436188 3.551136
120.864189 7.0
121.064301 417.139313
121.125008 5.333333
121.158997 25.5625
122.031708 90.25
122.345001 8.0025
123.043434 185.249695
123.64135 13.5747
124.05233 362.012299
124.082726 5.504807
124.27269 8.0025
125.060471 396.651093
127.296585 7.604167
127.644066 11.5625
129.436722 23.97917
130.064789 187.384399
130.25383 9.556818
130.333984 25.840281
130.356155 21.59511
130.377991 53.863411
130.396301 16.59091
130.42012 14.9
130.479721 10.52679
130.487686 43.215519
130.506592 10.5
130.532043 35.540218
130.691208 12.6125
130.730209 6.002717
130.786697 14.45924
130.833649 13.0
130.903183 9.723214
130.949066 3.551136
130.961014 8.220109
131.048996 18800.949219
131.096466 45.133339
131.120178 36.516129
131.136246 10.04545
131.150345 14.94608
131.170212 47.285839
131.199692 44.510231
131.21167 64.346207
131.231903 24.62818
131.248138 63.785599
131.259888 26.358141
131.274948 38.161072
131.296005 19.48818
131.318665 21.653851
131.332916 59.917019
131.358398 27.29314
131.386185 45.144402
131.430954 13.50893
131.449219 40.755211
131.502701 23.77083
131.578476 14.01705
131.59079 28.021231
131.602631 40.511028
131.610855 10.9375
131.631882 23.70993
131.647354 7.3125
131.734665 15.90385
131.986176 19.047119
132.250092 30.96122
132.434189 12.11111
132.986404 40.004169
133.023361 11.76471
133.065155 1291.31897
133.121185 29.37454
133.376709 2.580357
133.444992 7.502155
133.891449 14.02083
134.06073 442.698486
134.10701 10.34615
135.080109 96.09375
135.18602 10.5625
135.789886 5.0625
136.052734 323.271088
136.113602 3.723214
137.059402 1787.754028
137.107864 8.335714
137.127136 4.5375
137.143433 3.0
137.337021 12.03646
137.452179 10.8375
137.521362 5.778409
137.669922 11.11539
141.032761 38.030411
145.06192 85.510567
145.261612 25.006781
147.040619 110.184898
148.050003 305.645203
148.073044 66.628113
148.199677 25.284201
148.419083 8.082237
148.455109 4.5
148.483765 35.9375
148.503876 3.53125
149.059906 1805.959961
149.110718 9.1225
149.212692 23.5947
149.267944 10.0
149.528152 9.1125
149.957336 25.005211
150.06752 1242.352051
150.129257 15.98098
150.157593 7.538462
150.19162 11.05
150.208603 12.16667
150.226364 25.44022
150.238068 8.660714
150.354584 12.33565
150.416748 9.8375
150.498825 8.508333
150.563202 16.76078
150.978836 8.265625
151.059433 115.855103
151.114014 6.05
151.927658 8.503289
152.726288 6.180147
156.628876 11.24395
158.059265 410.869904
158.115723 5.333333
158.239563 4.515625
158.249924 7.142857
158.699417 7.041667
159.002075 6.25
159.0439 4493.077148
159.101624 39.873508
159.221359 8.633152
159.275192 26.95793
159.298309 11.80833
159.317947 25.582239
159.370651 4.520833
159.388214 12.52941
159.433472 16.54722
159.489258 2.506944
159.572464 12.14583
159.625473 6.555555
159.654053 3.3125
159.683289 9.142858
159.884979 7.533088
159.937698 10.26078
160.329514 10.56793
160.513718 9.055921
160.585098 25.142441
160.616379 14.7875
160.858582 7.591912
160.933472 8.625
161.055786 120.007698
161.632294 9.53125
161.826294 5.5
162.074219 23.0
162.154648 10.66667
162.173615 17.654409
162.183487 39.000721
162.233688 7.1125
162.2603 8.760417
162.289185 28.82008
162.316177 8.223214
162.345917 18.45192
162.388977 12.10227
162.41098 27.00922
162.420593 6.508929
162.446457 7.1125
162.497482 28.219061
162.544037 19.12348
162.611252 35.55127
162.748871 11.2225
162.791077 24.08098
163.07547 20959.130859
163.129654 254.994797
163.173996 49.593269
163.197189 36.12347
163.226486 87.470757
163.253479 27.41118
163.269684 92.473534
163.296112 21.52083
163.329636 127.588898
163.365509 8.0625
163.388962 47.010872
163.418762 52.439522
163.444962 33.45454
163.459 19.86862
163.482758 9.166667
163.514465 26.133329
163.527603 59.021259
163.547958 6.513889
163.561295 4.543269
163.574738 26.286711
163.601364 67.814728
163.614578 16.69556
163.739319 18.538111
163.784882 26.078529
163.803864 14.9375
163.951523 18.441179
163.979797 9.019397
164.194565 12.33565
164.288254 12.85289
164.367584 11.04167
164.469254 18.174999
164.554977 11.02083
164.733536 12.03125
164.818375 26.970381
164.898788 18.86161
165.049026 119.689598
165.091553 1573.641968
165.150009 6.395833
165.18483 9.780092
165.211899 36.441212
165.234009 11.01815
165.248337 33.540829
165.265305 15.02273
165.288467 59.257191
165.352524 12.25
165.377136 9.086538
165.49649 10.74013
165.619537 2.6125
165.677017 7.538462
166.086182 7287.287109
166.140472 70.527832
166.183395 10.00189
166.215942 64.651314
166.252655 31.71023
166.267227 27.9
166.278046 34.388199
166.294861 51.38242
166.335678 18.02083
166.370728 30.549999
166.421173 8.019397
166.431259 35.5625
166.450211 31.921881
166.470551 10.50298
166.522324 14.01786
166.542969 32.574409
166.587265 14.50179
166.596298 10.50368
166.664154 6.505682
166.701447 9.1875
166.811859 5.0625
167.338135 15.04167
167.445755 13.90833
167.540543 11.14464
167.589813 12.53333
167.964233 21.523809
171.959732 15.69391
172.070679 80.624641
172.110458 3.041667
172.683258 14.44676
173.058701 601.770996
173.61972 10.8
175.997711 4.005682
176.046432 2854.5271
176.105499 20.69759
176.211655 7.723214
176.238174 23.0875
176.260895 22.137501
176.288651 35.285419
176.436432 8.5225
176.561234 21.4879
176.600433 35.316891
176.68605 25.00391
176.72319 6.006945
177.028793 10.01042
177.477692 8.510417
179.069687 212.169601
179.406265 15.005
179.452866 14.21429
179.629471 21.6056
180.10289 161.947403
180.490768 8.827206
181.059692 84.51638
183.756546 3.0625
185.09639 18.602501
185.745346 19.180559
185.989182 5.00329
186.098679 79.23703
188.431046 3.520833
189.078842 102.237801
189.459564 87.035431
189.791458 7.142857
189.836197 4.9
189.875992 16.01103
189.904022 5.278409
189.93309 11.03571
189.957504 27.526779
189.968781 25.61141
189.999985 54.027382
190.043762 8.161184
190.058304 86.138397
190.085434 666.871094
190.114944 30.30769
190.147049 37.51086
190.168076 11.02083
190.187744 49.002102
190.207214 27.26178
190.244431 94.843758
190.291061 86.407753
190.308105 28.503469
190.375641 11.50417
190.389282 12.5
190.43486 43.29694
190.53331 14.505
190.62973 29.68531
190.727722 21.341909
190.773483 11.0928
190.867554 66.720901
190.898148 13.60227
190.947357 36.1861
190.96312 28.89352
190.976685 12.89286
191.017975 35.73835
191.070374 37541.898438
191.225601 46.55114
191.268204 16.690319
191.320633 120.526001
191.343353 44.216999
191.363876 69.883972
191.400085 21.52083
191.42012 122.038498
191.436157 126.6399
191.474548 34.45924
191.4944 72.007309
191.504639 20.71023
191.522095 82.947693
191.54126 17.555349
191.561798 23.5947
191.580307 19.63352
191.595749 35.504028
191.618561 36.0625
191.633011 43.572701
191.647385 140.633698
191.674667 76.761513
191.724518 28.555941
191.756927 58.066669
191.780579 48.719509
191.85083 25.049999
191.990952 75.742752
192.041245 17.240129
192.097488 45.648029
192.116455 20.65517
192.192886 12.5625
192.241852 11.5
192.290115 27.50922
192.470016 12.39063
192.625305 31.142241
192.806244 29.639771
192.835419 21.38542
192.888748 5.0
193.025253 11.34375
193.194519 7.5625
193.338486 15.625
193.408493 14.625
193.435104 23.10417
193.556229 29.7038
193.677109 13.80625
193.979401 10.5125
194.137329 23.052629
194.299744 8.4375
194.488373 8.827206
194.51622 4.778409
202.098953 14.01372
203.724289 7.104167
204.747131 8.333333
205.088287 66.020416
205.222458 26.361679
205.929382 9.45
206.081314 68.990059
206.814621 5.0625
206.862442 77.429443
206.88678 15.95066
206.914932 66.621468
206.930328 28.705099
206.95459 36.576221
206.97493 82.879372
206.991318 15.26008
207.00444 9.506945
207.04483 8.0225
207.06015 7.297794
207.086456 93.258072
207.111221 33.006248
207.148987 30.637501
207.187622 28.674999
207.198578 8.173611
207.23056 10.5625
207.255219 7.222222
207.270157 6.574405
207.300095 13.47059
207.311157 3.580357
207.360977 11.26645
207.510635 29.03441
207.532166 3.875
207.555725 17.055559
207.626205 15.97059
207.670731 45.001179
207.694748 22.9375
207.718307 6.4375
207.731155 16.173611
207.766296 24.510611
207.790741 8.620193
207.811417 11.03125
207.841522 28.35174
207.884171 13.625
208.027359 13.40833
208.059708 281.841705
208.097305 39770.78125
208.237915 56.54192
208.266296 38.5625
208.310379 23.339531
208.332382 167.802902
208.350632 71.951576
208.362961 19.106541
208.395569 127.0588
208.423569 82.618492
208.446686 103.935303
208.484039 52.237728
208.507858 94.581413
208.528564 30.229231
208.598053 161.866699
208.628937 22.70681
208.650787 54.041672
208.669525 24.7904
208.700974 66.128502
208.755508 130.755997
208.778839 53.190281
208.796066 50.85577
208.839127 21.890631
208.97197 30.083019
209.045547 102.644997
209.131012 20.10417
209.413742 25.066669
209.555771 10.5625
209.630844 13.50893
209.683899 28.39286
209.902664 6.551136
209.932449 37.031528
209.954254 17.611839
210.01886 16.00169
210.130539 28.63328
210.326523 20.5
210.523331 11.50833
210.538467 8.082237
210.928345 18.225
211.124451 25.47368
211.336792 9.007353
211.96312 3.78125
217.121109 502.052704
217.454575 14.0625
222.136841 12.66118
227.101013 62.50198
231.019485 37.2864
232.09198 64.550179
232.745316 10.50961
233.153763 12.33565
234.148773 302.683105
234.207138 3.0625
234.670624 10.66667
259.130188 312.19989
274.414093 3.0
274.469147 19.70417
274.537384 44.976749
274.594635 6.235577
274.615814 4.006945
274.632111 21.58552
274.708221 25.95833
274.756561 52.617748
274.800354 8.602273
274.934052 19.2875
275.273651 14.5625
275.504883 17.153851
275.526978 18.70833
275.591888 23.98214
275.712463 31.502979
275.7341 34.789291
275.960724 11.52381
276.08252 60.337608
276.112946 165.341705
276.159241 16102.639648
276.230438 148.720001
276.288849 59.98568
276.321411 29.55625
276.358856 9.297794
276.377045 79.356697
276.399536 85.0755
276.424774 34.11343
276.455048 32.586399
276.497559 94.536583
276.520294 89.345413
276.563171 67.386757
276.656586 29.151791
276.689392 20.16667
276.745148 32.448139
276.776184 9.002315
276.822235 22.73472
276.852661 39.7864
276.950012 62.98473
277.096893 37.661179
277.204651 9.642858
277.448303 45.760502
277.546509 18.69565
277.813171 11.72917
277.912109 20.393379
277.930267 10.11141
278.148804 4.725
278.659607 9.041667
279.334442 9.019397
279.514832 40.511631
281.023407 31.811371
311.025116 12.76471
344.204315 41.209888
358.069275 49.925709
434.37915 23.40139
641.595703 25.5625
808.265686 3.025
