>compound MLS000863579-01!2,5,8-trihydroxy-6-methoxy-2-methyl-3H-benzo[g]chromen-4-one
>formula C15H14O6
>ionization [M+H]+
>parentmass 291.087
#inchi InChI=1S/C15H14O6/c1-15(19)6-9(17)13-11(21-15)4-7-3-8(16)5-10(20-2)12(7)14(13)18/h3-5,16,18-19H,6H2,1-2H3
#inchikey FKCYENFBFZUSDP
#Ion_Source LC-ESI
#Instrument qTof
#Compound_Source NIH Natural Product Library
#PI Dorrestein
#Data_Collector VVP/LMS
#Scan -1
#Precursor_MZ 291.087
#ExactMass 290.079
#Charge 1
#CAS_Number N/A
#Pubmed_ID N/A
#Smiles COc1cc(O)cc2cc3OC(C)(O)CC(=O)c3c(O)c12
#INCHI_AUX N/A
#Library_Class 1
#SpectrumID CCMSLIB00000080245
#IonMode Positive
#UpdateWorkflowName UPDATE-SINGLE-ANNOTATED-GOLD
#LibraryQualityString Gold
#TaskID b1d8e8f6646f4e71acdff9ca3d919d08
##Scan# 1714
#SpectrumFile p2-A06_GA6_01_17983.mzXML
#LibraryName NIH_Natural_Products_Library.mgf
#MQScore -1
#Organism NIH_Natural_Products_Library
#TIC_Query 0
#RT_Query -1
#MZErrorPPM -1
#SharedPeaks 0
#MassDiff 0
#LibMZ -1
#SpecMZ 291.087
#SpecCharge 0
#internalFilename spec-00000.mgf

>collision 10
96.629128 124.0
96.977699 120.0
97.005142 204.0
97.179688 156.0
97.741646 140.0
98.664719 136.0
98.79129 36.0
99.480927 148.0
99.78688 116.0
99.838577 132.0
100.76149 176.0
101.013382 176.0
101.70871 164.0
102.022087 200.0
103.051018 192.0
103.723862 140.0
105.033394 144.0
105.703522 176.0
106.195206 176.0
106.41684 40.0
106.834045 104.0
107.421158 136.0
107.4356 144.0
109.358604 312.0
110.387138 52.0
110.923126 144.0
112.479752 192.0
113.03772 92.0
113.974976 220.0
114.46209 128.0
115.054955 1068.0
115.151222 140.0
115.614853 92.0
115.661942 72.0
116.028267 156.0
116.063622 204.0
116.687378 68.0
116.9692 128.0
117.016563 68.0
117.0653 164.0
117.6828 192.0
117.9161 176.0
118.042908 256.0
119.083916 156.0
120.390663 108.0
120.705345 144.0
121.023483 112.0
122.029472 208.0
122.610863 168.0
122.762978 120.0
122.844589 228.0
122.948296 184.0
127.054962 192.0
127.098663 28.0
127.47142 100.0
127.538841 160.0
128.060516 184.0
128.574905 188.0
129.420349 144.0
129.794235 132.0
131.046646 200.0
132.05722 512.0
132.186066 120.0
134.036728 1152.0
135.034927 156.0
135.219299 204.0
136.011993 216.0
137.025558 176.0
137.058197 216.0
137.524963 48.0
137.882309 152.0
138.59137 156.0
139.607803 52.0
141.751312 208.0
142.041779 176.0
142.7388 120.0
142.881516 92.0
143.04747 632.0
144.056824 124.0
144.116562 156.0
144.346024 144.0
145.064209 532.0
145.20816 52.0
146.030441 192.0
147.042831 232.0
147.082535 124.0
147.229813 36.0
147.3965 164.0
147.425491 44.0
147.532303 88.0
148.047226 152.0
148.241028 112.0
149.057999 308.0
149.659622 44.0
150.030991 440.0
150.508163 212.0
150.857544 140.0
151.792831 128.0
152.345078 148.0
152.51709 108.0
153.388474 216.0
154.08934 92.0
154.744766 152.0
155.045975 224.0
155.32962 136.0
156.286118 100.0
156.941208 176.0
157.064621 116.0
159.045166 156.0
159.76889 120.0
160.051971 1424.0
160.126328 204.0
161.057968 132.0
162.03447 552.0
162.058853 188.0
162.246399 92.0
162.360504 56.0
162.398544 136.0
163.038361 188.0
163.122223 112.0
163.25444 184.0
163.511398 176.0
164.051392 200.0
165.021545 116.0
165.088028 48.0
165.34642 112.0
165.63063 160.0
165.649033 108.0
165.75473 108.0
169.598846 124.0
170.092697 100.0
170.912949 116.0
171.0457 320.0
171.446777 152.0
171.58754 32.0
171.84314 208.0
172.010162 120.0
172.041489 120.0
172.773239 108.0
172.864807 44.0
172.956406 144.0
173.021851 140.0
173.055862 308.0
174.026016 112.0
174.069183 176.0
174.690933 192.0
175.042343 136.0
175.075729 1412.0
175.159256 128.0
175.322861 120.0
175.781723 140.0
176.046677 336.0
176.078735 284.0
176.122299 248.0
176.288742 80.0
176.325745 76.0
176.47377 220.0
177.017639 148.0
177.057358 352.0
177.082428 192.0
178.021271 128.0
182.860336 48.0
182.970703 240.0
183.145752 172.0
184.968399 148.0
185.061752 168.0
186.571655 124.0
187.042938 196.0
187.088547 236.0
187.145721 104.0
187.25737 152.0
187.445343 104.0
187.478043 80.0
187.93071 128.0
187.963455 176.0
188.007111 204.0
188.046799 1836.0
188.25827 68.0
188.334747 96.0
188.520523 124.0
189.020966 184.0
189.049667 536.0
189.349472 72.0
189.609741 80.0
189.78244 56.0
190.024109 404.0
190.056671 156.0
190.402618 128.0
191.0345 176.0
191.059631 212.0
191.533066 60.0
191.66806 180.0
192.044067 316.0
192.147812 144.0
193.048294 440.0
193.125732 148.0
196.052048 68.0
196.464722 116.0
197.626984 112.0
197.864883 180.0
198.57103 44.0
198.593857 148.0
199.005997 184.0
199.038696 300.0
200.012115 368.0
200.049393 484.0
200.451797 124.0
201.012955 80.0
201.045349 144.0
201.066574 132.0
201.727524 144.0
201.775589 148.0
202.075378 104.0
202.919403 124.0
203.035904 140.0
203.068695 2792.0
203.106567 56.0
203.14061 76.0
203.424393 68.0
203.71405 72.0
203.836212 40.0
203.906418 180.0
204.041504 304.0
204.073593 128.0
204.154602 100.0
204.555786 124.0
205.057404 148.0
205.079895 80.0
205.263885 156.0
205.386566 128.0
205.83223 192.0
206.038712 208.0
206.544693 104.0
207.008347 112.0
207.067886 472.0
207.228912 116.0
208.067627 212.0
208.359314 180.0
209.452484 152.0
209.616699 136.0
210.747833 36.0
211.427383 164.0
211.658966 184.0
212.154419 248.0
213.019196 216.0
213.042435 236.0
214.06044 176.0
214.121597 120.0
215.033279 224.0
215.551056 144.0
215.69162 192.0
216.041443 3416.0
216.083221 100.0
216.252945 144.0
216.279907 132.0
216.314407 156.0
216.897339 72.0
217.046417 256.0
217.136414 80.0
217.293243 116.0
217.577927 108.0
217.830475 76.0
217.924484 124.0
218.020905 4860.0
218.091995 224.0
218.150787 52.0
218.20665 68.0
218.291916 88.0
218.417542 84.0
218.459564 60.0
218.488007 144.0
218.659653 108.0
218.686142 148.0
219.026642 1068.0
219.319412 48.0
219.732269 40.0
220.026352 404.0
220.349319 80.0
220.523666 108.0
220.562103 140.0
220.715836 276.0
221.038162 276.0
221.097443 52.0
221.319458 28.0
221.639359 112.0
221.719376 144.0
224.892868 192.0
225.391602 100.0
228.266296 36.0
230.020706 208.0
230.056 192.0
231.016998 224.0
231.065018 3540.0
232.069901 868.0
232.098236 172.0
232.569412 64.0
233.046204 3128.0
233.154648 56.0
233.270157 56.0
233.628998 184.0
233.863297 76.0
234.050018 844.0
234.381027 52.0
234.853561 68.0
235.051865 72.0
235.833679 92.0
236.032089 492.0
236.069092 132.0
236.43927 48.0
236.693344 164.0
237.041214 208.0
237.15596 64.0
238.027237 156.0
239.830078 164.0
248.940002 56.0
249.077423 1352.0
249.131592 44.0
250.071304 180.0
250.076431 152.0
251.076736 128.0
254.917465 96.0
258.055481 476.0
259.05838 164.0
271.27301 116.0
273.07489 200.0
273.404694 84.0
275.607513 68.0
282.349213 48.0
283.467346 20.0
291.094635 72.0
293.023224 148.0
296.090729 48.0
347.035095 76.0
357.031738 76.0
367.73114 120.0
394.28891 88.0
456.691833 72.0
693.474243 112.0
838.734253 184.0
885.741516 48.0
909.593689 44.0
1071.672852 28.0
1136.791504 140.0
1219.029175 200.0
1235.001343 88.0
1271.242676 164.0
1291.23291 140.0
1305.49707 140.0
1333.846313 148.0
1341.132446 240.0
1358.286377 108.0
1387.437134 112.0
1403.518921 52.0
1416.859985 212.0
1420.248291 40.0
1420.450806 52.0
1430.843872 204.0
1434.218628 156.0
1437.725708 228.0
1442.113647 220.0
1444.956909 116.0
1446.478027 60.0
1463.285645 192.0
1469.787109 144.0
1481.660889 164.0
