>compound MLS000876835-01!6-hydroxy-2-(1-hydroxy-3-methylbutyl)-1-methoxy-8-methyl-10H-benzo[b][1,5]benzodioxocin-12-one
>formula C21H24O6
>ionization [M+H]+
>parentmass 373.165
#inchi InChI=1S/C21H24O6/c1-11(2)7-15(22)14-5-6-17-18(20(14)25-4)21(24)26-10-13-8-12(3)9-16(23)19(13)27-17/h5-6,8-9,11,15,22-23H,7,10H2,1-4H3
#inchikey UOWGLBYIKHMCIS
#Ion_Source LC-ESI
#Instrument qTof
#Compound_Source NIH Natural Product Library
#PI Dorrestein
#Data_Collector VVP/LMS
#Scan -1
#Precursor_MZ 373.165
#ExactMass 372.157
#Charge 1
#CAS_Number N/A
#Pubmed_ID N/A
#Smiles COc1c(ccc2Oc3c(O)cc(C)cc3COC(=O)c12)C(O)CC(C)C
#INCHI_AUX N/A
#Library_Class 1
#SpectrumID CCMSLIB00000080101
#IonMode Positive
#UpdateWorkflowName UPDATE-SINGLE-ANNOTATED-GOLD
#LibraryQualityString Gold
#TaskID b1d8e8f6646f4e71acdff9ca3d919d08
##Scan# 2268
#SpectrumFile p2-B04_GB4_01_17992.mzXML
#LibraryName NIH_Natural_Products_Library.mgf
#MQScore -1
#Organism NIH_Natural_Products_Library
#TIC_Query 0
#RT_Query -1
#MZErrorPPM -1
#SharedPeaks 0
#MassDiff 0
#LibMZ -1
#SpecMZ 373.165
#SpecCharge 0
#internalFilename spec-00000.mgf

>collision 10
97.402824 96.0
99.899529 216.0
105.577927 160.0
106.820877 140.0
108.116623 180.0
114.095169 56.0
116.664879 60.0
119.391487 196.0
119.772369 120.0
135.790222 120.0
136.770721 164.0
137.052505 148.0
137.972092 172.0
138.341721 188.0
139.747513 108.0
143.082336 216.0
149.389099 20.0
149.879669 180.0
150.069794 208.0
152.704758 128.0
153.06897 132.0
154.07283 140.0
155.018005 164.0
155.088821 228.0
158.201141 180.0
163.036499 364.0
165.068237 260.0
165.270309 124.0
168.059418 200.0
170.074112 188.0
170.120834 64.0
171.562042 92.0
172.081223 172.0
174.052826 116.0
174.312881 156.0
178.143951 160.0
179.101562 156.0
180.056396 148.0
182.073059 192.0
183.082916 372.0
185.05275 272.0
185.434692 176.0
187.775604 180.0
196.052338 136.0
197.095978 108.0
198.066483 388.0
198.09198 164.0
198.162018 44.0
200.046371 132.0
200.280167 52.0
201.062439 184.0
202.726852 200.0
203.535294 128.0
204.180374 200.0
206.776596 156.0
208.316345 260.0
209.063904 208.0
210.064224 300.0
211.078323 352.0
213.097702 152.0
213.152908 52.0
213.225555 36.0
215.075043 172.0
216.686356 168.0
216.846542 180.0
225.05397 104.0
226.065186 456.0
227.071365 320.0
227.163895 56.0
228.046677 144.0
228.070724 140.0
231.292175 216.0
232.516663 104.0
233.497971 180.0
237.05455 132.0
237.781357 52.0
238.06073 132.0
239.038879 160.0
239.077728 168.0
240.073318 48.0
241.039536 180.0
241.095154 200.0
242.057617 128.0
242.720337 132.0
242.850601 72.0
243.061554 204.0
243.607986 200.0
251.054291 64.0
251.44548 188.0
252.175049 36.0
252.741119 136.0
252.987991 148.0
253.053787 1928.0
253.091614 148.0
253.504257 136.0
254.055298 788.0
254.160645 36.0
254.357407 56.0
255.059174 352.0
255.107086 84.0
255.304214 28.0
255.619156 72.0
257.045319 132.0
268.352814 224.0
268.440857 84.0
268.767029 108.0
268.806183 44.0
268.96347 164.0
269.008545 68.0
269.081573 6316.0
269.220764 28.0
269.292633 116.0
269.573578 64.0
269.616058 80.0
270.086426 776.0
270.119598 204.0
270.630127 80.0
270.682526 60.0
270.849548 180.0
270.928162 52.0
271.05426 192.0
271.085938 372.0
271.665771 104.0
272.069061 288.0
273.56189 76.0
300.089417 132.0
319.206177 236.0
357.232727 132.0
361.049774 156.0
373.249207 92.0
376.196564 140.0
428.969208 84.0
579.16803 100.0
766.701477 20.0
966.366333 108.0
1039.006836 112.0
1404.942749 52.0
1413.647095 72.0
1423.925049 168.0
1472.7323 56.0
