>compound Flurbiprofen
>formula C15H13FO2 
>ionization [M+H]+
>parentmass 245.097
#inchi InChI=1S/C15H13FO2/c1-10(15(17)18)12-7-8-13(14(16)9-12)11-5-3-2-4-6-11/h2-10H,1H3,(H,17,18)
#inchikey SYTBZMRGLBWNTM
#Ion_Source LC-ESI
#Instrument qTof
#Compound_Source Isolated
#PI Sirenas
#Data_Collector Ed Esquenazi 
#Scan -1
#Precursor_MZ 245.097
#ExactMass 0.0
#Charge 1
#CAS_Number N/A
#Pubmed_ID N/A
#Smiles N/A
#INCHI_AUX N/A
#Library_Class 3
#SpectrumID CCMSLIB00000005982
#IonMode Positive
#UpdateWorkflowName UPDATE-SINGLE-ANNOTATED-BRONZE
#LibraryQualityString Bronze
#TaskID d19310cd93df49b68e9fcbec27720eb5
##Scan# 3
#SpectrumFile Flurbiprofen.mgf
#LibraryName fda_library.mgf
#MQScore -1
#Organism fda_library
#TIC_Query 0
#RT_Query -1
#MZErrorPPM -1
#SharedPeaks 0
#MassDiff 0
#LibMZ -1
#SpecMZ 245.097
#SpecCharge 0
#internalFilename spec-00000.mgf

>collision 10
101.039322 373.799805
101.287231 20.595791
103.054955 196.6866
111.320251 19.877159
115.054077 40.63063
116.062378 13.83796
121.045578 86.571609
123.022621 44.9375
126.045441 12.80028
128.062439 56.495781
133.043304 136.305801
140.062637 25.3179
147.057938 38.77586
151.05481 270.985687
152.061722 577.500977
152.101181 13.68371
153.070038 185.949493
157.046234 21.525
159.060135 309.013489
163.052719 71.750618
164.061142 30.83333
165.069 113.452301
165.896164 10.48674
166.076218 54.987499
166.638641 11.80449
167.569321 12.00572
170.051727 87.348137
171.061295 149.235306
175.055542 14.63612
176.061569 415.373993
176.345825 14.59677
176.416077 16.24123
176.45929 14.71809
177.069733 937.50293
177.113419 17.27701
177.140732 10.50026
177.251785 23.18679
177.317291 12.07949
177.364136 18.66033
177.446152 16.064119
177.628464 32.808971
177.669815 13.19263
178.077454 9889.78418
178.218231 17.649839
178.239548 30.102779
178.299011 14.35124
178.314911 45.411541
178.357513 23.113741
178.371292 29.89757
178.383911 19.342291
178.405151 18.17058
178.435257 22.83893
178.461197 24.19599
178.486053 30.425831
178.50766 22.897881
178.537918 19.00024
178.582458 21.71657
178.657394 22.20788
178.77005 15.58245
178.801407 11.56127
178.998291 16.36237
179.328445 11.30022
179.411911 12.17014
179.495697 16.721901
181.041763 28.0488
181.872986 11.62269
182.217957 11.58601
182.242294 13.29556
183.059799 3080.639893
183.116623 38.306271
183.180206 20.51742
183.260742 14.02214
183.280548 17.950239
183.322113 15.73333
183.334549 11.04167
183.369614 10.35119
183.419861 26.10038
183.512741 11.90799
183.758789 12.75515
184.068359 1512.43103
184.324173 23.897261
184.346191 14.13603
184.397614 21.43314
184.607574 12.00303
189.067169 42.914551
195.060928 13.67628
196.0681 413.016388
196.764786 13.0155
197.074112 341.906891
482.36673 11.00647
