>compound MLS000863581-01!4-[(E)-2-(3,5-dimethoxyphenyl)ethenyl]phenol
>formula C16H16O3
>ionization [M+H]+
>parentmass 257.1172208240905
#inchi InChI=1S/C16H16O3/c1-18-15-9-13(10-16(11-15)19-2)4-3-12-5-7-14(17)8-6-12/h3-11,17H,1-2H3/b4-3+
#inchikey VLEUZFDZJKSGMX
#Ion_Source LC-ESI
#Instrument qTof
#Compound_Source NIH Natural Product Library
#PI Dorrestein
#Data_Collector VVP/LMS
#Scan -1
#Precursor_MZ 257.118
#ExactMass 256.11
#Charge 1
#CAS_Number N/A
#Pubmed_ID N/A
#Smiles COc1cc(OC)cc(/C=C/c2ccc(O)cc2)c1
#INCHI_AUX N/A
#Library_Class 1
#SpectrumID CCMSLIB00000080169
#IonMode Positive
#UpdateWorkflowName UPDATE-SINGLE-ANNOTATED-GOLD
#LibraryQualityString Gold
#TaskID b1d8e8f6646f4e71acdff9ca3d919d08
##Scan# 2283
#SpectrumFile p2-A05_GA5_01_17982.mzXML
#LibraryName NIH_Natural_Products_Library.mgf
#MQScore -1
#Organism NIH_Natural_Products_Library
#TIC_Query 0
#RT_Query -1
#MZErrorPPM -1
#SharedPeaks 0
#MassDiff 0
#LibMZ -1
#SpecMZ 257.118
#SpecCharge 0
#internalFilename spec-00000.mgf

>collision 10
95.657333 40.0
97.022881 128.0
97.653214 92.0
98.052895 172.0
99.046745 168.0
99.439339 188.0
99.661758 196.0
100.372368 124.0
100.494041 68.0
100.611794 276.0
101.035484 184.0
101.811211 132.0
101.885529 172.0
101.949829 164.0
102.044304 168.0
102.245461 156.0
103.033882 180.0
103.051926 464.0
103.076317 152.0
103.474785 228.0
104.052605 112.0
104.603539 36.0
104.740456 64.0
105.028709 196.0
105.07048 472.0
105.245743 184.0
105.44799 136.0
106.072281 176.0
106.694305 156.0
107.049042 584.0
107.342888 172.0
107.753647 112.0
107.780502 120.0
107.96862 160.0
108.053642 160.0
108.262497 128.0
108.52359 152.0
108.577507 200.0
109.06543 420.0
109.342064 172.0
109.837952 280.0
110.050827 172.0
110.119736 100.0
110.25972 184.0
110.473 128.0
110.768166 36.0
110.942101 32.0
111.0439 208.0
111.105675 220.0
111.156036 68.0
111.895905 192.0
112.646683 164.0
113.713875 176.0
115.053322 380.0
115.069885 72.0
116.157043 96.0
118.037277 164.0
119.045769 136.0
119.710381 120.0
120.051773 188.0
120.416985 140.0
120.9702 180.0
121.028084 580.0
121.064964 720.0
121.27906 44.0
121.305359 144.0
121.770538 176.0
122.032249 300.0
122.056168 164.0
122.267418 40.0
122.547081 116.0
122.743256 176.0
123.076447 124.0
124.413742 212.0
124.722519 144.0
124.766975 144.0
124.811447 136.0
125.05616 192.0
125.263245 128.0
125.394707 256.0
125.472725 68.0
126.392952 184.0
126.901405 168.0
127.057129 172.0
127.246925 216.0
128.059814 908.0
129.068832 372.0
129.819305 252.0
130.0439 188.0
130.373215 120.0
131.050705 320.0
131.904877 136.0
132.059097 368.0
133.025818 728.0
133.064697 352.0
133.18808 64.0
133.339737 148.0
133.388 176.0
133.463867 172.0
133.940262 76.0
133.970215 140.0
134.039322 116.0
134.070908 380.0
134.703796 40.0
135.042831 344.0
135.077469 432.0
136.061386 196.0
137.059601 564.0
137.896469 132.0
138.064835 168.0
138.207504 128.0
138.345581 112.0
138.518875 176.0
139.053741 224.0
139.071732 160.0
140.058701 160.0
140.871292 188.0
141.070007 172.0
141.344147 64.0
141.363083 60.0
142.071533 224.0
142.547592 20.0
142.622452 36.0
142.779373 204.0
143.084229 424.0
143.25206 184.0
143.426987 140.0
143.44368 196.0
143.47229 136.0
144.054581 172.0
144.092361 128.0
144.915848 104.0
144.939819 140.0
145.083618 200.0
146.039337 148.0
148.052902 312.0
148.755371 180.0
149.057571 644.0
149.647598 100.0
149.69873 216.0
150.04718 104.0
150.071548 176.0
151.052994 380.0
151.073624 128.0
152.063126 1288.0
152.153671 56.0
153.068039 1464.0
154.076675 476.0
154.124084 36.0
154.4702 68.0
155.052307 380.0
155.085342 492.0
155.120712 168.0
155.667313 152.0
155.744308 184.0
156.05246 144.0
156.124573 176.0
156.360672 176.0
156.405731 108.0
156.487885 172.0
156.557602 220.0
156.803864 132.0
157.064728 540.0
157.09848 56.0
157.123428 96.0
157.640289 204.0
158.067902 136.0
158.588821 240.0
158.631424 96.0
159.077103 176.0
160.088715 120.0
160.204575 120.0
160.893051 132.0
160.943558 52.0
161.416077 120.0
161.438843 52.0
161.456543 168.0
161.917145 124.0
162.05394 132.0
162.54332 200.0
163.072189 112.0
164.062515 460.0
164.082443 236.0
164.307861 208.0
164.383133 92.0
164.761017 212.0
165.026825 148.0
165.069641 2940.0
165.123993 64.0
165.157242 84.0
165.213531 216.0
165.262131 40.0
165.292847 64.0
165.364502 68.0
165.653839 144.0
165.876785 244.0
166.022934 136.0
166.076538 664.0
167.022034 360.0
167.050552 148.0
167.085526 464.0
167.395218 108.0
167.975128 20.0
168.026718 164.0
168.058289 276.0
168.084366 340.0
168.271912 112.0
168.512115 36.0
168.755066 164.0
169.066589 612.0
169.100433 180.0
169.153473 124.0
169.218201 116.0
169.326965 80.0
170.081863 204.0
171.080551 968.0
171.553818 68.0
172.08342 208.0
173.05954 232.0
174.062943 96.0
174.081329 212.0
174.588531 224.0
175.520737 188.0
176.059402 224.0
176.423721 160.0
177.069351 148.0
178.080719 520.0
178.574234 52.0
178.688614 100.0
179.055969 144.0
179.084229 384.0
180.082809 128.0
181.064117 4140.0
181.361771 36.0
181.680878 64.0
181.874084 72.0
182.021759 44.0
182.0737 2832.0
182.250076 52.0
182.290375 104.0
182.535004 44.0
182.855133 192.0
183.046219 164.0
183.078918 1624.0
183.272537 64.0
183.831375 140.0
184.052887 584.0
184.082443 484.0
185.052139 268.0
186.218185 140.0
186.335388 160.0
187.077835 152.0
190.084366 92.0
191.053894 128.0
191.3983 44.0
192.045654 152.0
192.360504 56.0
192.435043 100.0
192.495789 48.0
193.061996 524.0
193.4552 52.0
193.912247 88.0
194.031448 76.0
194.071991 788.0
194.106308 212.0
194.722397 56.0
194.783508 88.0
195.042557 176.0
195.080139 124.0
195.589905 52.0
196.047714 132.0
196.089447 328.0
196.202759 84.0
196.777496 164.0
196.945053 144.0
197.060303 140.0
197.0923 156.0
197.140106 152.0
198.035889 160.0
198.066605 324.0
198.907928 152.0
199.074387 1584.0
199.337646 88.0
200.086426 132.0
201.082764 268.0
203.924515 44.0
204.977493 212.0
206.822449 76.0
207.077286 172.0
207.836975 224.0
208.04361 192.0
208.086685 164.0
209.061111 556.0
209.438278 168.0
210.069809 1272.0
210.098221 176.0
210.594925 168.0
211.075485 1724.0
211.230835 56.0
211.285797 56.0
211.329193 28.0
212.045425 232.0
212.080246 704.0
213.087982 836.0
214.102966 164.0
215.066467 176.0
215.106918 192.0
219.069153 60.0
220.798843 56.0
224.055145 172.0
224.087906 308.0
224.114731 204.0
225.056274 192.0
225.091766 816.0
226.062302 128.0
226.100754 1152.0
227.071274 716.0
227.683502 32.0
228.066254 360.0
228.425919 56.0
230.095459 180.0
234.936157 136.0
235.812515 60.0
239.121902 184.0
240.113968 264.0
241.083969 336.0
242.093262 1164.0
242.348969 120.0
242.913223 48.0
243.095474 236.0
244.090332 204.0
248.234177 92.0
249.524689 132.0
253.929825 52.0
255.088791 192.0
257.119232 160.0
258.111237 140.0
262.649292 72.0
300.159882 104.0
409.100098 60.0
447.096527 64.0
547.200928 40.0
564.766357 48.0
593.857422 120.0
834.354309 76.0
863.347107 212.0
957.584351 236.0
986.325195 108.0
1015.465576 172.0
1024.644653 172.0
1039.626221 84.0
1096.351929 160.0
1102.733765 124.0
1122.950928 56.0
1123.958252 48.0
1132.267578 56.0
1148.768799 188.0
1154.38147 160.0
1157.318115 252.0
1168.333374 128.0
1173.482056 48.0
1176.347412 152.0
1178.696777 92.0
1208.05481 184.0
1213.484375 196.0
1244.10498 152.0
1245.3479 180.0
1256.561768 144.0
1270.867798 128.0
1278.77002 128.0
1279.496094 104.0
1280.984497 100.0
1290.740723 176.0
1297.879639 104.0
1298.015869 168.0
1301.431274 208.0
1312.613037 176.0
1322.358521 176.0
1348.73938 152.0
1359.358765 160.0
1370.307251 148.0
1370.447144 200.0
1387.779541 260.0
1396.244873 132.0
1410.358643 20.0
1421.690186 64.0
1423.754639 176.0
1434.664795 48.0
1441.835449 152.0
1447.766602 192.0
1462.967285 200.0
1463.111938 188.0
1463.256592 52.0
1471.742554 216.0
1483.723877 136.0
1489.525391 184.0
1491.085083 216.0
