>compound FenoprpfenCa
>formula C15H14O3 
>ionization [M+H]+
>parentmass 243.101
#inchi InChI=1S/C15H14O3/c1-11(15(16)17)12-6-5-9-14(10-12)18-13-7-3-2-4-8-13/h2-11H,1H3,(H,16,17)
#inchikey RDJGLLICXDHJDY
#Ion_Source LC-ESI
#Instrument qTof
#Compound_Source Isolated
#PI Sirenas
#Data_Collector Ed Esquenazi 
#Scan -1
#Precursor_MZ 243.101
#ExactMass 0.0
#Charge 1
#CAS_Number N/A
#Pubmed_ID N/A
#Smiles N/A
#INCHI_AUX N/A
#Library_Class 3
#SpectrumID CCMSLIB00000005468
#IonMode Positive
#UpdateWorkflowName UPDATE-SINGLE-ANNOTATED-BRONZE
#LibraryQualityString Bronze
#TaskID d19310cd93df49b68e9fcbec27720eb5
##Scan# 2
#SpectrumFile FenoprpfenCa.mgf
#LibraryName fda_library.mgf
#MQScore -1
#Organism fda_library
#TIC_Query 0
#RT_Query -1
#MZErrorPPM -1
#SharedPeaks 0
#MassDiff 0
#LibMZ -1
#SpecMZ 243.101
#SpecCharge 0
#internalFilename spec-00000.mgf

>collision 10
102.618736 7.605042
102.65155 11.37083
103.054398 2450.941895
103.09922 18.829321
103.149132 13.09058
103.166801 10.88889
103.265907 5.573412
103.394165 3.555556
103.421371 4.340278
103.442604 7.377451
103.592796 22.6
103.605927 11.70417
103.650917 11.23077
103.779167 8.022223
104.02877 9.631173
104.061691 2776.48291
104.105316 13.00079
104.151466 6.102564
104.165665 5.041667
104.207794 10.35833
104.234787 12.4053
104.258003 7.399193
104.266411 23.148149
104.291077 14.44444
104.300278 9.148809
104.319649 13.16346
104.375259 14.66912
104.425018 8.333333
104.460571 10.39682
104.483047 28.937429
104.519745 3.0
104.557465 11.44599
104.619865 3.041667
104.994598 7.333333
105.032936 98.441582
105.1091 6.001984
105.147934 6.344048
105.616249 8.148809
106.001556 3.816667
109.898415 11.53452
112.847397 12.51852
115.037537 2.722222
115.289009 13.5375
117.07 20.16667
118.41124 13.15152
118.51487 9.003788
118.946999 4.069444
119.048286 3553.292969
119.095024 7.666667
119.105286 10.48016
119.133408 12.10256
119.143021 4.111111
119.149651 5.054487
119.181168 6.185606
119.229141 8.240196
119.258362 1.675
119.266724 2.761364
119.308083 8.45
119.322914 9.226851
119.353333 4.703703
119.518936 9.761905
119.543442 3.333333
119.618965 7.020833
119.661385 9.340986
119.684219 8.352941
119.775574 6.67803
120.007935 4.054824
120.47715 4.009259
121.4375 13.12803
121.574158 3.025
122.922104 21.723869
128.05896 72.093391
129.068863 188.500305
129.15329 3.416667
129.174484 4.002778
129.222198 4.033333
129.295334 3.791667
129.610153 7.006945
129.652969 7.727941
130.745544 7.6875
131.04776 75.816978
131.123657 9.556818
131.298492 6.352941
131.461975 4.666667
132.057663 93.694923
132.096954 2.0
140.470078 11.2402
141.070053 596.668274
141.138977 1.666667
141.259125 5.347222
141.36232 7.0
141.500259 7.935
145.063812 43.16573
153.068878 155.652603
153.219772 3.727941
153.271454 9.561992
153.331757 9.671053
153.478455 31.005289
153.629135 7.334302
153.853302 3.020833
154.076614 847.452026
154.12973 4.115741
154.185883 10.00833
154.222076 15.51513
154.345764 5.335
154.388992 5.001812
154.406448 5.573412
154.531662 18.013189
155.043488 102.189301
155.123749 18.02043
155.609741 13.30183
156.5 8.703947
157.064209 25.10816
165.069336 77.989319
167.085602 303.277405
167.143082 2.678571
167.953644 3.375
168.057205 22.069059
168.148499 8.595239
168.360168 5.932018
168.695496 4.761905
169.061752 340.458496
169.102005 1153.540039
169.146729 19.67976
169.195877 12.13564
169.219635 22.445
169.322495 2.695513
169.358109 18.122971
169.435684 17.03244
169.705093 9.685
169.811996 4.367424
169.920578 11.66667
170.692368 11.67539
172.090576 4.083333
174.315689 3.375
176.061646 45.65657
177.066071 125.077202
177.643265 4.5
178.075653 828.645996
178.269958 8.081897
178.333771 3.013889
178.35791 17.99099
178.381073 3.080128
178.412109 10.22917
178.43251 4.010417
178.511276 14.37083
178.581802 5.440476
178.683212 6.363636
178.707825 6.160088
178.889404 15.28333
178.953232 4.531863
179.084473 2842.306885
179.139374 19.740511
179.172348 6.708333
179.185806 8.028153
179.223785 3.555556
179.262329 26.138069
179.288269 4.669117
179.363968 16.95076
179.400772 21.052231
179.446762 6.37037
179.488617 7.668478
179.544571 7.560484
179.59584 6.033602
179.619156 10.64015
179.655121 2.815476
179.983002 4.022059
180.083267 17.836809
180.20256 14.69823
180.250153 16.5448
180.962112 3.666667
181.064407 733.530579
181.118912 3.025
181.343842 22.83956
181.873489 10.00397
182.071411 1888.467041
182.108154 8.358974
182.143372 1.75
182.16449 2.678571
182.200043 7.190217
182.309189 36.496948
182.388351 11.30769
182.44632 4.011905
182.479599 6.673611
182.552963 18.7064
182.622299 11.13038
182.69545 11.33333
182.733063 12.57908
183.547546 16.0
185.864441 9.739865
186.011337 5.121212
195.078827 330.593414
195.126846 2.075
195.281326 3.0
195.500153 2.4
195.858871 31.770281
195.890411 20.16964
195.938583 19.648439
195.977127 11.10417
196.004486 22.865641
196.03569 21.362961
196.096695 49.628231
196.136246 21.387159
196.162537 12.02193
196.192215 24.107269
196.206482 17.99094
196.296097 7.125
196.321335 4.306818
196.342575 11.68254
196.4151 16.775539
196.469482 12.8648
196.651001 2.520833
196.70694 21.81138
196.752335 19.04167
196.857727 12.01399
196.967026 14.15123
197.031113 37.421829
197.057281 10.54688
197.095383 19480.869141
197.156052 117.598099
197.176224 35.30183
197.196564 13.76042
197.218643 63.2523
197.241318 85.72049
197.261078 51.507099
197.289841 83.953484
197.311096 16.37191
197.336594 125.0746
197.372482 13.73713
197.394714 75.543129
197.413284 30.436899
197.446533 81.693771
197.466599 93.914513
197.482086 20.880051
197.516571 18.41715
197.536484 33.594662
197.5569 24.887409
197.577179 11.44444
197.603241 29.35577
197.626404 23.838421
197.64061 52.036469
197.677917 68.78492
197.759308 31.58135
197.845062 3.034091
197.859161 24.2124
197.98407 32.752369
198.098175 239.059296
198.317215 12.1
198.527603 11.33823
199.016434 8.833333
199.581207 15.66793
199.612488 15.16462
199.671356 8.724999
200.06311 5.136111
202.908234 7.107143
203.256195 12.67244
1588.779907 7.865196
