>compound Zileuton
>formula C11H12N2O2S 
>ionization [M+H]+
>parentmass 237.069
#inchi InChI=1S/C11H12N2O2S/c1-7(13(15)11(12)14)10-6-8-4-2-3-5-9(8)16-10/h2-7,15H,1H3,(H2,12,14)
#inchikey MWLSOWXNZPKENC
#Ion_Source LC-ESI
#Instrument qTof
#Compound_Source Isolated
#PI Sirenas
#Data_Collector Ed Esquenazi 
#Scan -1
#Precursor_MZ 237.069
#ExactMass 0.0
#Charge 1
#CAS_Number N/A
#Pubmed_ID N/A
#Smiles N/A
#INCHI_AUX N/A
#Library_Class 3
#SpectrumID CCMSLIB00000005970
#IonMode Positive
#UpdateWorkflowName UPDATE-SINGLE-ANNOTATED-BRONZE
#LibraryQualityString Bronze
#TaskID d19310cd93df49b68e9fcbec27720eb5
##Scan# 3
#SpectrumFile Zileuton.mgf
#LibraryName fda_library.mgf
#MQScore -1
#Organism fda_library
#TIC_Query 0
#RT_Query -1
#MZErrorPPM -1
#SharedPeaks 0
#MassDiff 0
#LibMZ -1
#SpecMZ 237.069
#SpecCharge 0
#internalFilename spec-00000.mgf

>collision 10
102.045708 154.671707
102.08886 3.703704
102.430145 18.361111
102.616791 9.049797
102.723656 2.520833
103.053688 145.287796
103.358185 4.333333
112.710419 3.686404
114.42321 5.692308
114.445091 18.546671
114.468452 3.555556
114.49395 1.675
114.559364 10.59572
114.799438 4.760417
114.967163 4.022059
115.054245 3331.805908
115.098251 29.36953
115.146278 8.003623
115.175125 17.69071
115.206017 4.002778
115.233444 8.401667
115.400208 3.342592
115.531181 8.435897
115.553543 12.71011
115.857452 2.111111
116.236511 13.92754
116.313942 3.011905
116.389046 17.334459
116.434761 24.92708
116.441544 8.011363
116.463226 34.653851
116.478432 10.81855
116.509125 3.668651
116.538986 15.71646
116.546043 6.865196
116.628296 12.54167
116.677826 3.675
116.723259 11.88
116.76461 3.675
117.005318 2.016667
117.069946 4378.939941
117.133301 16.443689
117.150642 17.056311
117.17144 18.667681
117.189674 5.177632
117.212379 12.45333
117.237251 12.51122
117.261353 11.47619
117.292496 22.44511
117.314095 3.047619
117.348045 13.36029
117.354279 3.741667
117.496109 7.819445
117.628609 6.680555
117.645912 8.676802
118.17067 9.421875
118.701035 14.88466
120.315918 5.013889
123.270882 3.266667
125.797714 7.055555
126.074883 22.29365
126.398453 30.5
126.453392 4.083333
126.67643 15.02422
126.723473 8.491228
127.032372 16.75
127.053802 2077.226074
127.100296 15.0625
127.115852 18.238331
127.189919 5.335784
127.240936 9.0
127.284111 5.002451
127.303169 6.704545
127.315514 9.88469
127.351814 12.56517
127.35939 45.13332
127.37674 21.50144
127.41291 27.120029
127.433296 26.34029
127.460793 15.69086
127.473877 15.96003
127.504036 9.422222
127.523643 10.35417
127.531601 8.669118
127.570831 6.860965
127.617943 8.066667
127.637627 12.21802
127.834915 36.316471
127.842056 5.76923
127.996307 41.670052
128.031067 8.698232
128.061859 15243.330078
128.105301 27.00194
128.116119 12.81548
128.133316 10.0704
128.171127 49.027302
128.194183 23.08547
128.204376 30.815479
128.225388 26.89674
128.233398 56.506641
128.241684 33.438099
128.273758 30.753361
128.290527 22.708241
128.298935 40.84375
128.316299 27.97291
128.378159 14.67547
128.38942 21.38542
128.400452 31.21483
128.413834 9.673612
128.435959 9.013462
128.460358 4.66886
128.470551 45.127159
128.509445 58.30706
128.537384 39.70628
128.560364 32.132591
128.58255 7.787879
128.591705 24.0151
128.602875 20.082319
128.661514 19.42857
128.693863 10.38889
128.942291 21.263889
129.135681 4.388889
129.254547 18.556219
129.313538 13.1165
129.380753 8.805555
129.61824 9.001543
129.641068 4.518939
129.717331 5.041667
129.752945 8.066667
129.770844 4.297619
129.808426 13.94444
129.844101 8.667735
130.614288 6.75
132.309631 2.761364
132.458572 9.595239
134.017776 329.177795
135.024597 192.081604
135.136658 9.185897
135.235092 6.786765
135.364166 14.37634
136.024902 62.103748
159.022766 42.319149
159.163803 2.449074
159.208206 19.769381
160.033417 151.772507
160.0867 13.07843
160.166473 7.066667
160.193726 24.71361
160.33754 3.080128
160.47818 10.33333
161.041275 2398.812988
161.095734 7.948333
161.106812 24.888889
161.144821 12.5
161.16098 6.906746
161.187988 17.35099
161.228775 9.737069
161.272034 1.708333
161.339066 2.670455
161.36116 4.007576
161.383255 3.375
161.418716 9.962963
161.428238 19.348431
161.461594 3.708333
161.480804 7.061274
161.631851 16.74107
161.714523 6.510965
161.900742 1.6875
162.503433 17.80056
168.816498 7.0
674.956909 26.28269
1368.994873 4.335526
