>compound Ibutilide fumarate
>formula C20H36N2O3S
>ionization [M+H]+
>parentmass 385.252167
#inchi InChI=1S/C20H36N2O3S/c1-4-6-7-8-9-16-22(5-2)17-10-11-20(23)18-12-14-19(15-13-18)21-26(3,24)25/h12-15,20-21,23H,4-11,16-17H2,1-3H3
#inchikey ALOBUEHUHMBRLE
#origInchi InChI=1S/2C20H36N2O3S.C4H4O4/c2*1-4-6-7-8-9-16-22(5-2)17-10-11-20(23)18-12-14-19(15-13-18)21-26(3,24)25;5-3(6)1-2-4(7)8/h2*12-15,20-21,23H,4-11,16-17H2,1-3H3;1-2H,(H,5,6)(H,7,8)/b;;2-1+
#Ion_Source LC-ESI
#Instrument qTof
#Compound_Source Commercial
#PI Dorrestein
#Data_Collector Garg_Neha
#Scan -1
#Precursor_MZ 385.252
#ExactMass 384.245
#Charge 1
#CAS_Number 122647-32-9
#Pubmed_ID N/A
#Smiles CS(=O)(=O)NC1(C=CC(=CC=1)C(CCCN(CCCCCCC)CC)O).C(/C=C/C(=O)O)(=O)O.CS(=O)(=O)NC2C=CC(=CC=2)C(CCCN(CCCCCCC)CC)O
#INCHI_AUX N/A
#Library_Class 1
#SpectrumID CCMSLIB00000078446
#IonMode Positive
#UpdateWorkflowName UPDATE-SINGLE-ANNOTATED-GOLD
#LibraryQualityString Gold
#TaskID 77f51c88eb8b467eb4a01dd2d0cb90d2
##Scan# 1151
#SpectrumFile Plate7_1_20_GD2_01_15767.mzXML
#LibraryName FDALibrary_2_04302014.mgf
#MQScore -1
#Organism FDALibrary_2_04302014
#TIC_Query 0
#RT_Query -1
#MZErrorPPM -1
#SharedPeaks 0
#MassDiff 0
#LibMZ -1
#SpecMZ 385.252
#SpecCharge 0
#internalFilename spec-00000.mgf

>collision 10
47.462364 144.0
70.492828 168.0
94.919739 236.0
99.104935 180.0
105.686005 140.0
106.060783 168.0
111.104424 148.0
112.108658 200.0
113.920715 152.0
115.062225 196.0
117.069916 148.0
118.081863 164.0
119.032646 144.0
119.070656 264.0
120.0401 200.0
127.059387 192.0
129.016495 148.0
130.556107 172.0
134.09108 140.0
135.148743 144.0
143.070633 324.0
144.081253 1996.0
145.084351 164.0
145.183075 144.0
146.090302 280.0
147.098328 144.0
154.158508 572.0
155.161942 140.0
156.175491 300.0
157.172073 160.0
160.074875 164.0
160.548645 180.0
161.081207 804.0
162.12619 204.0
168.177063 136.0
182.18927 364.0
183.193192 280.0
184.040054 176.0
198.020126 1104.0
199.029633 188.0
203.147186 244.0
209.146301 164.0
223.366348 144.0
224.082291 388.0
225.080048 180.0
231.186462 176.0
232.185318 188.0
239.935074 108.0
240.066956 1804.0
241.070816 356.0
242.06749 120.0
243.070404 196.0
259.285126 164.0
269.13266 168.0
273.232941 184.0
288.265656 168.0
289.029694 140.0
289.259857 160.0
291.76004 164.0
298.17276 180.0
313.740448 148.0
321.912048 204.0
349.021484 148.0
365.087128 164.0
366.591583 148.0
367.240906 2380.0
367.707092 164.0
368.247406 956.0
369.234009 128.0
381.07901 160.0
383.028076 144.0
383.23407 1500.0
384.23938 692.0
385.095367 144.0
385.252167 4924.0
386.254303 688.0
386.483185 144.0
387.246246 760.0
388.253815 148.0
1563.909546 160.0
1769.52124 308.0
1783.867188 164.0
1962.634766 144.0
