>compound MLS001048854-01!(E)-3-(4-hydroxyphenyl)-1-(4-methoxyphenyl)prop-2-en-1-one
>formula C16H14O3
>ionization [M+H]+
>parentmass 255.100739
#inchi InChI=1S/C16H14O3/c1-19-15-9-5-13(6-10-15)16(18)11-4-12-2-7-14(17)8-3-12/h2-11,17H,1H3/b11-4+
#inchikey WSEGRADBFAKNHQ
#Ion_Source LC-ESI
#Instrument qTof
#Compound_Source NIH Natural Product Library
#PI Dorrestein
#Data_Collector VVP/LMS
#Scan -1
#Precursor_MZ 255.102
#ExactMass 254.094
#Charge 1
#CAS_Number N/A
#Pubmed_ID N/A
#Smiles COc1ccc(cc1)C(=O)/C=C/c2ccc(O)cc2
#INCHI_AUX N/A
#Library_Class 1
#SpectrumID CCMSLIB00000080096
#IonMode Positive
#UpdateWorkflowName UPDATE-SINGLE-ANNOTATED-GOLD
#LibraryQualityString Gold
#TaskID b1d8e8f6646f4e71acdff9ca3d919d08
##Scan# 2131
#SpectrumFile p2-A04_GA4_01_17981.mzXML
#LibraryName NIH_Natural_Products_Library.mgf
#MQScore -1
#Organism NIH_Natural_Products_Library
#TIC_Query 0
#RT_Query -1
#MZErrorPPM -1
#SharedPeaks 0
#MassDiff 0
#LibMZ -1
#SpecMZ 255.102
#SpecCharge 0
#internalFilename spec-00000.mgf

>collision 10
95.02182 120.0
95.050011 368.0
95.085861 140.0
95.291695 148.0
95.49192 220.0
95.581413 232.0
95.885208 188.0
96.066551 204.0
96.283211 80.0
96.693779 128.0
96.966019 152.0
97.57843 180.0
97.771248 156.0
97.934662 140.0
98.194832 172.0
98.236252 232.0
99.161652 188.0
99.322258 204.0
99.556458 144.0
99.57235 168.0
99.757141 116.0
99.80088 140.0
99.828712 228.0
100.019714 180.0
100.845497 116.0
101.039856 164.0
101.652596 264.0
102.277641 56.0
102.503212 152.0
102.575768 92.0
103.054329 216.0
103.290604 176.0
103.951096 148.0
104.091164 116.0
104.746063 120.0
105.070679 136.0
105.270233 108.0
105.513382 148.0
105.566544 220.0
105.867371 136.0
105.959549 196.0
106.287613 112.0
106.811501 132.0
107.049301 2172.0
107.173843 76.0
107.223305 48.0
107.448067 144.0
107.947922 204.0
108.055481 140.0
108.488327 120.0
108.836884 164.0
109.032158 160.0
109.269211 148.0
109.595627 160.0
109.885918 220.0
110.069595 168.0
110.148964 124.0
110.99659 152.0
111.030144 180.0
111.046043 200.0
111.275658 180.0
111.969589 184.0
112.512878 148.0
112.678352 140.0
112.716385 136.0
112.773445 236.0
113.531403 136.0
113.624733 160.0
113.739326 164.0
113.82637 160.0
114.151497 196.0
114.790344 172.0
115.422417 152.0
115.801208 60.0
116.197784 68.0
116.360901 76.0
117.318275 140.0
117.855682 168.0
118.040764 1148.0
118.151894 180.0
118.279572 156.0
118.803993 124.0
118.892952 88.0
118.960243 140.0
119.012344 188.0
119.049294 19140.0
119.168488 36.0
119.228416 120.0
119.264816 56.0
119.310005 76.0
119.449181 68.0
119.534035 60.0
119.695114 196.0
119.934761 92.0
120.053894 1628.0
120.075554 56.0
120.255394 36.0
120.626732 240.0
120.646408 196.0
120.744804 140.0
120.771049 144.0
120.805489 136.0
120.932961 140.0
120.998634 72.0
121.027214 156.0
121.054871 436.0
121.097313 64.0
121.614624 144.0
121.687073 132.0
122.086998 108.0
123.047333 432.0
123.416702 188.0
123.82576 128.0
124.049576 164.0
124.806976 168.0
125.059906 504.0
125.098434 192.0
125.249855 116.0
125.399139 88.0
125.515068 136.0
125.58197 176.0
126.059738 148.0
126.970894 176.0
127.020241 144.0
127.076324 40.0
127.125694 116.0
127.404114 256.0
128.058701 44.0
128.602081 160.0
129.166977 84.0
129.366119 160.0
129.950836 220.0
130.659698 156.0
131.055862 196.0
131.318024 112.0
131.491425 36.0
132.871262 148.0
133.061127 352.0
133.160507 196.0
133.949448 236.0
134.152237 160.0
134.295212 184.0
134.385178 112.0
134.604462 132.0
134.730179 240.0
134.768463 172.0
134.791565 156.0
134.811691 180.0
134.853958 48.0
134.921051 204.0
135.015808 168.0
135.044281 17776.0
135.166168 88.0
135.210144 48.0
135.242538 48.0
135.291153 128.0
135.321259 40.0
135.504227 36.0
135.661819 52.0
135.810226 92.0
136.048721 1364.0
136.132828 100.0
136.79921 172.0
136.904907 124.0
136.925873 84.0
137.059204 136.0
137.100601 136.0
137.170517 112.0
137.217148 76.0
137.238129 80.0
137.30809 76.0
137.723541 88.0
137.91748 60.0
140.547821 152.0
140.592651 176.0
141.071091 272.0
141.114685 116.0
141.251862 136.0
142.071503 188.0
144.018723 256.0
145.069214 148.0
145.376221 68.0
145.419418 144.0
145.851761 156.0
146.033203 440.0
146.062775 96.0
146.325684 60.0
146.467773 60.0
146.641251 168.0
146.730438 200.0
146.766602 112.0
146.858246 168.0
146.88237 120.0
146.985046 204.0
147.044403 20112.0
147.114029 28.0
147.144684 92.0
147.2565 40.0
147.292725 108.0
147.34346 48.0
147.486038 108.0
147.631104 52.0
147.790756 56.0
148.047226 1408.0
148.304169 72.0
148.362335 84.0
149.047974 252.0
149.216934 48.0
149.275284 88.0
150.139801 52.0
152.057907 164.0
153.07457 220.0
153.988174 76.0
154.309433 88.0
156.480377 144.0
156.607391 200.0
156.699554 144.0
157.063522 152.0
158.002823 56.0
158.897232 64.0
159.950211 104.0
160.093719 236.0
161.062057 1372.0
161.803177 208.0
162.064041 160.0
163.360046 132.0
165.072418 1160.0
165.410538 36.0
165.669189 140.0
166.078644 588.0
167.078598 120.0
168.060242 180.0
169.065445 204.0
170.237213 64.0
171.019775 132.0
173.939529 220.0
176.051132 128.0
177.06723 324.0
177.543716 136.0
177.777176 76.0
177.795761 80.0
178.010788 104.0
178.075989 284.0
179.090561 116.0
181.061951 184.0
183.082001 516.0
184.052048 176.0
184.079041 172.0
185.060593 152.0
190.076096 156.0
190.770966 104.0
191.450592 48.0
193.037384 68.0
193.067795 180.0
194.074127 1008.0
194.181152 32.0
195.080307 200.0
196.464874 56.0
197.057114 284.0
197.12941 80.0
198.058258 72.0
198.091873 68.0
199.01738 88.0
204.612885 140.0
205.065811 124.0
207.080109 140.0
208.092392 140.0
209.09613 428.0
209.38353 128.0
210.065384 432.0
210.089722 116.0
210.112808 120.0
211.065109 192.0
212.083511 208.0
221.056183 144.0
222.064835 396.0
223.072388 172.0
223.099792 208.0
225.039322 68.0
225.538223 112.0
226.064606 164.0
227.059219 232.0
227.113205 196.0
237.09288 504.0
238.058136 176.0
238.079636 160.0
239.633041 92.0
240.079453 160.0
241.080231 132.0
244.186691 108.0
254.093918 140.0
254.840866 112.0
255.100739 916.0
255.29541 168.0
256.112885 136.0
256.365051 64.0
257.756378 96.0
263.28183 108.0
265.411133 140.0
294.890076 52.0
299.263947 72.0
318.514893 104.0
319.727325 40.0
363.048065 136.0
390.142548 44.0
401.387299 104.0
442.186096 44.0
547.121643 20.0
594.031128 116.0
626.399048 52.0
702.192078 136.0
742.180237 184.0
744.605957 172.0
746.807129 156.0
754.621643 164.0
760.59845 80.0
768.93158 168.0
792.006226 188.0
803.01709 132.0
804.077759 112.0
808.570801 148.0
827.166138 184.0
832.36615 160.0
847.519226 212.0
852.64325 208.0
855.784485 92.0
859.63739 164.0
864.563782 192.0
875.153381 264.0
876.808655 140.0
896.53186 36.0
897.062317 176.0
903.039368 168.0
909.600403 136.0
909.888611 228.0
912.544128 136.0
918.512146 68.0
918.934387 60.0
920.938599 108.0
923.07196 140.0
931.636047 104.0
932.322693 64.0
944.749084 72.0
963.895203 240.0
963.99408 88.0
975.006409 132.0
975.808289 152.0
977.450317 160.0
981.910706 144.0
985.093994 128.0
1003.52002 128.0
1007.066528 60.0
1007.426575 176.0
1009.733704 164.0
1022.73407 180.0
1030.859131 180.0
1051.725708 68.0
1052.416382 152.0
1053.088013 204.0
1054.696899 176.0
1063.570801 184.0
1064.601685 196.0
1067.87854 224.0
1078.146851 140.0
1079.34314 184.0
1086.128052 148.0
1086.213257 180.0
1088.996338 80.0
1092.138062 176.0
1092.453857 192.0
1097.380615 216.0
1099.477661 184.0
1103.639282 216.0
1104.42627 160.0
1105.001709 124.0
1112.82251 148.0
1113.998047 184.0
1116.390747 164.0
1132.555298 220.0
1134.853882 176.0
1135.913574 188.0
1139.787354 236.0
1141.99231 208.0
1142.28833 172.0
1144.118774 200.0
1154.455566 148.0
1157.724243 176.0
1159.370361 144.0
1159.546631 132.0
1160.217651 212.0
1160.760132 200.0
1161.72998 156.0
1163.209351 204.0
1165.409668 204.0
1166.728149 204.0
1169.476318 172.0
1169.911987 176.0
1170.095825 176.0
1171.015015 152.0
1173.23645 140.0
1176.046875 180.0
1176.251587 156.0
1179.168091 144.0
1179.783325 188.0
1186.478638 152.0
1188.172607 196.0
1189.442139 176.0
1191.234375 164.0
1193.687988 128.0
1193.901245 64.0
1195.098145 172.0
1195.270142 80.0
1198.031006 172.0
1198.651123 188.0
1200.312256 180.0
1203.065186 200.0
1204.370239 164.0
1206.229004 228.0
1206.8927 160.0
1207.452881 172.0
1210.414673 120.0
1216.071655 108.0
1219.454102 200.0
1220.170044 164.0
1220.566284 176.0
1222.40271 148.0
1225.710327 148.0
1232.709229 164.0
1234.065308 196.0
1236.296631 156.0
1236.912598 188.0
1237.129639 236.0
1237.556641 124.0
1241.39209 176.0
1242.448608 180.0
1242.841553 188.0
1245.734009 240.0
1246.584229 140.0
1253.261841 104.0
1258.184692 128.0
1259.568848 188.0
1262.402954 116.0
1269.796509 184.0
1270.732788 172.0
1272.4646 116.0
1275.732544 44.0
1275.782227 124.0
1286.018311 156.0
1291.577148 212.0
1292.263916 124.0
1293.459106 228.0
1294.805176 164.0
1294.883911 164.0
1297.786133 180.0
1299.270752 160.0
1301.021851 248.0
1302.077393 196.0
1303.276978 184.0
1304.088989 188.0
1307.361328 112.0
1307.757202 164.0
1307.850708 144.0
1308.455444 196.0
1308.692993 80.0
1310.926025 180.0
1313.204102 192.0
1313.442139 228.0
1316.249512 56.0
1316.321777 148.0
1318.76355 112.0
1321.92395 196.0
1328.814697 204.0
1329.097778 244.0
1331.377075 156.0
1333.585693 184.0
1333.702026 252.0
1336.21814 240.0
1338.94043 140.0
1339.137085 184.0
1341.191772 188.0
1341.330322 176.0
1343.299072 184.0
1346.751709 100.0
1354.431763 196.0
1356.029053 128.0
1356.776733 120.0
1357.348633 172.0
1359.1604 76.0
1361.678345 44.0
1362.993286 224.0
1367.052368 168.0
1368.870605 120.0
1375.432251 236.0
1376.569214 132.0
1376.871948 196.0
1377.071411 188.0
1379.310181 180.0
1383.104736 44.0
1384.163696 184.0
1384.659546 140.0
1385.022461 208.0
1390.41272 204.0
1392.543457 208.0
1393.078247 108.0
1394.311646 180.0
1397.189209 128.0
1398.052368 172.0
1400.166626 224.0
1401.033813 184.0
1401.306396 132.0
1402.759521 152.0
1403.408203 144.0
1405.914551 144.0
1406.101074 164.0
1406.481689 72.0
1407.028076 144.0
1408.535156 164.0
1410.156494 232.0
1413.776245 148.0
1415.430542 160.0
1416.643921 236.0
1416.906128 104.0
1417.505493 188.0
1417.625366 184.0
1418.015137 196.0
1419.064575 144.0
1421.779907 116.0
1421.907593 152.0
1426.354004 144.0
1427.707275 152.0
1430.047119 196.0
1431.786255 220.0
1432.087524 180.0
1432.185425 168.0
1433.31543 172.0
1434.815308 208.0
1434.920898 172.0
1435.380859 200.0
1440.641357 160.0
1443.316772 48.0
1445.540771 112.0
1445.593628 104.0
1446.751709 148.0
1446.978882 128.0
1447.36499 216.0
1448.417603 216.0
1451.942017 96.0
1455.835205 108.0
1457.589966 184.0
1458.365112 160.0
1460.851562 144.0
1466.144165 160.0
1471.467407 56.0
1471.772827 128.0
1473.560059 148.0
1474.5 188.0
1474.790405 112.0
1476.113037 136.0
1479.854614 184.0
1480.398315 128.0
1481.036377 176.0
1483.823364 52.0
1487.098755 216.0
1488.342407 156.0
1489.425293 156.0
1490.032104 152.0
1490.992676 236.0
1491.215576 116.0
1491.991821 80.0
1492.430176 188.0
1493.691406 68.0
1498.75708 160.0
1502.60437 176.0
