>compound MLS001065596-01!FLUTAMIDE13311-84-7
>formula C11H11F3N2O3
>ionization [M+H]+
>parentmass 277.080872
#inchi InChI=1S/C11H11F3N2O3/c1-6(2)10(17)15-7-3-4-9(16(18)19)8(5-7)11(12,13)14/h3-6H,1-2H3,(H,15,17)
#inchikey MKXKFYHWDHIYRV
#Ion_Source LC-ESI
#Instrument qTof
#Compound_Source NIH Pharmacologically Active Library
#PI Dorrestein
#Data_Collector VP/LMS
#Scan -1
#Precursor_MZ 277.085
#ExactMass 276.072
#Charge 1
#CAS_Number N/A
#Pubmed_ID N/A
#Smiles CC(C)C(=O)Nc1ccc([N+](=O)[O-])c(c1)C(F)(F)F
#INCHI_AUX N/A
#Library_Class 1
#SpectrumID CCMSLIB00000086054
#IonMode Positive
#UpdateWorkflowName UPDATE-SINGLE-ANNOTATED-GOLD
#LibraryQualityString Gold
#TaskID d252d724072548979f1f6f1ced849daf
##Scan# 2187
#SpectrumFile p5-C04_GC4_01_18449.mzXML
#LibraryName Pharm_Active_Library.mgf
#MQScore -1
#Organism Pharm_Active_Library
#TIC_Query 0
#RT_Query -1
#MZErrorPPM -1
#SharedPeaks 0
#MassDiff 0
#LibMZ -1
#SpecMZ 277.085
#SpecCharge 0
#internalFilename spec-00000.mgf

>collision 10
48.710793 128.0
49.265209 40.0
49.70623 144.0
49.857891 216.0
52.239594 148.0
53.029415 224.0
58.884354 128.0
65.312538 128.0
66.422218 168.0
69.224892 140.0
69.717575 168.0
71.150703 148.0
72.708672 140.0
73.065491 152.0
73.927147 200.0
78.267143 124.0
81.950745 184.0
81.992188 200.0
84.596863 56.0
84.686584 164.0
84.833176 180.0
86.106438 116.0
86.396637 140.0
87.812042 240.0
87.931442 144.0
88.252739 172.0
88.387413 244.0
88.432327 116.0
89.058548 188.0
92.986984 156.0
93.050331 120.0
93.31546 124.0
95.020821 168.0
96.044044 160.0
96.192337 136.0
96.671173 164.0
97.530174 184.0
100.281387 192.0
103.627281 160.0
103.919235 140.0
104.020706 120.0
107.089859 188.0
107.221718 184.0
111.047562 480.0
111.769897 68.0
111.826714 168.0
112.047813 156.0
112.111023 200.0
112.805412 128.0
112.92382 164.0
114.03009 528.0
116.939247 120.0
117.331284 176.0
118.169243 192.0
120.026291 212.0
120.292458 164.0
121.948364 116.0
122.036301 188.0
122.74749 196.0
126.576172 208.0
127.044586 188.0
127.997528 124.0
128.461792 176.0
129.067062 180.0
130.543213 32.0
130.748337 120.0
134.034744 204.0
134.832504 144.0
136.097275 196.0
136.143723 68.0
140.034271 152.0
141.039902 528.0
141.677002 112.0
142.00412 132.0
142.047409 1072.0
142.132217 32.0
142.215271 84.0
142.25325 64.0
143.047195 184.0
144.024826 172.0
144.084549 120.0
145.000992 152.0
145.024963 312.0
146.9608 136.0
147.081451 192.0
148.02916 168.0
149.013916 192.0
149.044266 168.0
149.098969 180.0
149.164581 128.0
151.034805 172.0
152.44696 140.0
154.362305 160.0
156.075699 176.0
157.016998 104.0
157.408783 136.0
157.493698 164.0
158.344055 128.0
158.531952 180.0
160.03389 384.0
160.200241 40.0
160.293457 60.0
160.916458 172.0
160.984634 124.0
161.045578 4260.0
161.093231 164.0
161.18985 84.0
161.287811 56.0
161.391449 96.0
161.538132 44.0
161.920334 56.0
162.050629 596.0
162.379044 60.0
163.026413 72.0
163.196716 76.0
163.250107 132.0
164.039368 128.0
164.080154 160.0
164.355606 124.0
169.630463 100.0
171.030518 112.0
173.037949 64.0
175.816299 200.0
177.029694 180.0
178.60083 156.0
180.911652 128.0
182.338608 140.0
184.85466 220.0
186.041779 204.0
187.028442 336.0
188.031479 48.0
188.07515 212.0
188.140671 56.0
189.028931 120.0
189.434143 116.0
190.034515 152.0
190.996002 132.0
191.037262 180.0
192.00679 136.0
192.053802 168.0
193.033829 336.0
193.067261 152.0
194.039139 184.0
198.051926 300.0
198.932373 120.0
199.053101 164.0
200.893753 172.0
201.032013 180.0
201.650482 216.0
203.024475 132.0
207.035614 108.0
208.392792 144.0
211.064667 32.0
211.48703 52.0
212.054703 188.0
212.074997 236.0
213.077209 116.0
215.053314 132.0
215.097519 164.0
215.465042 112.0
215.786514 56.0
217.036713 172.0
219.014481 180.0
219.04689 116.0
224.288681 196.0
229.336212 100.0
230.389313 216.0
230.664291 108.0
231.087448 1420.0
231.917404 100.0
232.09317 336.0
232.132645 80.0
233.11322 132.0
234.220535 152.0
244.103165 132.0
245.065582 208.0
248.112137 176.0
249.282852 68.0
259.055237 100.0
259.135345 108.0
263.075165 2060.0
264.086517 656.0
264.244781 64.0
264.934357 68.0
265.550232 152.0
265.592377 116.0
268.118591 52.0
269.600159 56.0
277.080872 148.0
278.090637 228.0
279.153717 116.0
291.99408 48.0
445.814514 72.0
696.200317 36.0
937.984802 240.0
993.144165 72.0
1043.228271 152.0
1099.039673 136.0
1104.22522 40.0
1121.634155 76.0
1205.898926 212.0
1231.033813 160.0
1236.738647 160.0
1269.562744 124.0
1274.453369 180.0
1306.87146 168.0
1308.620361 164.0
1341.416382 128.0
1368.419434 184.0
1391.271118 88.0
1400.007568 184.0
1403.077271 72.0
1434.148438 212.0
