>compound Etoposide
>formula C29H32O13 
>ionization [M+H]+
>parentmass 589.193
#inchi InChI=1S/C29H32O13/c1-11-36-9-20-27(40-11)24(31)25(32)29(41-20)42-26-14-7-17-16(38-10-39-17)6-13(14)21(22-15(26)8-37-28(22)33)12-4-18(34-2)23(30)19(5-12)35-3/h4-7,11,15,20-22,24-27,29-32H,8-10H2,1-3H3/t11?,15?,20?,21-,22+,24?,25?,26?,27?,29?/m1/s1
#inchikey VJJPUSNTGOMMGY
#Ion_Source LC-ESI
#Instrument qTof
#Compound_Source Isolated
#PI Sirenas
#Data_Collector Ed Esquenazi 
#Scan -1
#Precursor_MZ 589.193
#ExactMass 0.0
#Charge 1
#CAS_Number N/A
#Pubmed_ID N/A
#Smiles N/A
#INCHI_AUX N/A
#Library_Class 3
#SpectrumID CCMSLIB00000005537
#IonMode Positive
#UpdateWorkflowName UPDATE-SINGLE-ANNOTATED-BRONZE
#LibraryQualityString Bronze
#TaskID d19310cd93df49b68e9fcbec27720eb5
##Scan# 2
#SpectrumFile Etoposide.mgf
#LibraryName fda_library.mgf
#MQScore -1
#Organism fda_library
#TIC_Query 0
#RT_Query -1
#MZErrorPPM -1
#SharedPeaks 0
#MassDiff 0
#LibMZ -1
#SpecMZ 589.193
#SpecCharge 0
#internalFilename spec-00000.mgf

>collision 10
109.029503 150.001297
109.056198 24.008329
109.076561 7.180147
109.417847 26.86364
111.043915 159.940308
111.073036 6.574405
111.175797 4.5
111.719688 16.9
115.051514 155.682297
127.039597 747.217224
127.084579 5.508929
127.178467 16.505211
127.315811 12.80179
129.056564 58.583172
135.040894 21.504169
135.200241 6.020833
141.052383 131.125
143.047684 43.019291
144.219147 4.525
145.049225 610.204712
155.071152 98.456833
157.046936 62.00647
171.064102 205.749802
172.127808 7.660714
173.057724 193.912598
173.184265 11.40833
175.058273 89.655983
175.291916 4.005682
175.310349 9.605603
181.0466 117.829697
181.900452 14.1875
182.683502 15.94531
183.925873 16.002979
184.001465 11.03333
184.043945 12.54223
184.078995 13.3225
184.100739 9.0375
184.138611 21.611111
184.213882 12.0928
184.236298 44.727821
184.263046 5.0
184.360291 27.137171
184.383911 14.88095
184.675018 9.265625
184.698456 15.08173
185.059677 11708.950195
185.11554 128.538406
185.137405 58.047951
185.156708 31.495461
185.178894 17.886909
185.225845 36.391201
185.273911 66.732788
185.289322 16.52083
185.302567 20.45455
185.332626 12.4
185.346741 57.794041
185.390533 5.625
185.40329 30.30368
185.429077 21.012501
185.443985 15.32143
185.484161 11.76563
185.500732 33.887821
185.519394 15.25762
185.568649 9.388889
185.652679 32.660332
185.6763 12.16118
185.708969 11.63636
185.742905 10.66667
186.473312 11.02083
186.572815 4.004167
186.948059 9.3125
187.412399 40.315929
188.206497 35.909088
189.074158 203.546799
198.093369 9.002976
199.036438 464.477112
217.048767 237.5858
217.254135 35.8848
217.44368 9.6225
217.703674 19.8375
223.527756 11.50298
227.293076 17.68371
227.460129 15.14286
227.619888 10.74395
227.688263 35.827351
227.735077 50.698528
227.792175 41.201241
227.813385 26.60417
227.837402 58.704731
227.882614 20.18807
227.908997 138.707397
227.924408 12.68382
227.963806 22.4375
227.982864 92.144028
228.024323 27.50568
228.073212 26.04167
228.092499 15.0625
228.170059 17.5494
228.213684 3.673611
228.260757 8.828804
228.453522 14.78533
228.539932 6.890625
228.608719 37.789589
228.628281 14.13281
228.64653 8.265625
228.692719 94.866608
228.772629 6.581731
228.852112 11.58036
229.049316 26224.390625
229.113724 245.689606
229.209106 17.02083
229.246094 76.795837
229.2733 16.39674
229.305359 108.598297
229.332581 70.733093
229.363678 145.7612
229.399002 92.573631
229.465973 80.353752
229.478134 25.971149
229.489899 17.875
229.518524 61.93185
229.563187 68.514732
229.581848 22.005951
229.593826 26.04167
229.634979 29.950661
229.65564 7.091912
229.724182 6.502717
229.74086 51.585072
229.773102 95.451103
229.946671 17.611839
230.315109 3.0
230.350647 13.16071
230.505219 18.00625
230.658417 7.041667
230.912094 12.53634
230.954102 8.860119
231.224686 4.225
231.345963 13.52778
231.578674 12.50658
232.066101 19.76593
232.145477 15.51923
233.778259 8.375
233.855392 9.002315
233.872528 27.66766
234.211975 9.506945
234.842667 25.76593
235.056213 49.000561
235.580933 15.06653
239.074188 24.785721
246.000992 8.45
246.385544 3.0
247.060501 2192.751953
247.125336 14.5525
247.219528 27.781019
247.284927 30.19632
247.333649 11.11111
247.512985 38.507809
247.558014 16.44022
267.06546 11.71607
268.106659 18.389111
285.067413 25.4697
297.397156 20.521549
297.421936 12.70833
297.679779 14.7875
298.078674 209.110001
299.094757 144.380493
299.753571 16.1
299.813782 9.501689
305.083832 18.033331
325.112885 21.901779
326.47644 10.65341
337.101044 73.66407
339.134338 113.567398
339.380951 5.520833
342.109955 26.824261
365.098694 61.5
378.226196 7.102273
383.112701 671.423584
383.183716 6.581731
383.222198 3.5
383.361786 36.941231
383.426514 18.52562
383.562805 19.560181
383.640594 12.13636
384.036438 4.5
519.980225 7.003676
589.180969 174.033203
590.920044 12.00417
1094.544189 5.223214
1488.424316 26.591721
