>compound Azlocillin sodium salt
>formula C20H23N5O6S
>ionization [M+Na]+
>parentmass 484.12735
#inchi InChI=1S/C20H23N5O6S/c1-20(2)13(17(28)29)25-15(27)12(16(25)32-20)22-14(26)11(10-6-4-3-5-7-10)23-19(31)24-9-8-21-18(24)30/h3-7,11-13,16H,8-9H2,1-2H3,(H,21,30)(H,22,26)(H,23,31)(H,28,29)/t11-,12?,13?,16?/m1/s1
#inchikey JTWOMNBEOCYFNV
#origInchi InChI=1S/C20H23N5O6S.Na/c1-20(2)13(17(28)29)25-15(27)12(16(25)32-20)22-14(26)11(10-6-4-3-5-7-10)23-19(31)24-9-8-21-18(24)30;/h3-7,11-13,16H,8-9H2,1-2H3,(H,21,30)(H,22,26)(H,23,31)(H,28,29);/t11-,12?,13?,16?;/m1./s1
#Ion_Source LC-ESI
#Instrument qTof
#Compound_Source Commercial
#PI Dorrestein
#Data_Collector Garg_Neha
#Scan -1
#Precursor_MZ 484.126
#ExactMass 461.137
#Charge 1
#CAS_Number 37091-65-9 ,37091-66-0(free base)
#Pubmed_ID N/A
#Smiles N12(C(C(SC(C(C1=O)NC(=O)[C@@H](C3C=CC=CC=3)NC(=O)N4CCNC4=O)2)(C)C)C(=O)O).[Na]
#INCHI_AUX N/A
#Library_Class 1
#SpectrumID CCMSLIB00000078603
#IonMode Positive
#UpdateWorkflowName UPDATE-SINGLE-ANNOTATED-GOLD
#LibraryQualityString Gold
#TaskID 77f51c88eb8b467eb4a01dd2d0cb90d2
##Scan# 1098
#SpectrumFile Plate9_61_80_GC7_01_15756.mzXML
#LibraryName FDALibrary_2_04302014.mgf
#MQScore -1
#Organism FDALibrary_2_04302014
#TIC_Query 0
#RT_Query -1
#MZErrorPPM -1
#SharedPeaks 0
#MassDiff 0
#LibMZ -1
#SpecMZ 484.126
#SpecCharge 0
#internalFilename spec-00000.mgf

>collision 10
69.139954 208.0
69.773598 212.0
81.995667 164.0
87.259033 156.0
98.780693 232.0
107.02668 148.0
108.027649 236.0
109.036697 248.0
110.043571 188.0
114.035698 176.0
116.03157 148.0
117.054321 220.0
122.308029 152.0
126.9786 144.0
128.049988 188.0
130.064163 104.0
132.045288 168.0
132.081848 280.0
135.025955 176.0
135.992096 168.0
136.024597 168.0
136.840591 204.0
139.019119 224.0
140.065353 152.0
143.0121 196.0
147.061707 224.0
151.538773 172.0
152.041931 852.0
153.045441 164.0
157.074173 172.0
157.501022 208.0
157.553482 252.0
160.042953 192.0
161.037598 244.0
161.070435 176.0
162.006393 144.0
164.059769 144.0
168.006607 180.0
169.00647 140.0
169.073746 148.0
170.937012 196.0
173.014633 156.0
173.072235 144.0
175.054764 196.0
175.085907 416.0
176.093842 328.0
176.397705 180.0
178.021851 160.0
180.542023 252.0
180.738159 156.0
182.024551 1564.0
183.025604 104.0
183.052628 408.0
184.022705 144.0
185.142181 148.0
186.004379 196.0
186.069534 176.0
186.093964 200.0
195.048218 272.0
196.032379 692.0
197.050049 160.0
199.046448 540.0
199.323746 168.0
199.402435 164.0
200.576141 208.0
202.054749 184.0
205.761948 192.0
208.043655 164.0
209.285675 156.0
211.121887 368.0
215.559982 176.0
217.042114 192.0
218.093353 1708.0
219.097672 512.0
222.06041 180.0
223.069962 164.0
223.742279 156.0
224.144363 160.0
225.024261 160.0
227.014084 160.0
227.064545 160.0
227.115158 148.0
229.012238 144.0
230.052963 160.0
235.564789 156.0
237.064377 136.0
239.043976 660.0
240.073654 3488.0
241.078659 760.0
242.081635 316.0
245.44133 148.0
246.080399 156.0
248.07695 160.0
250.15654 176.0
250.543152 276.0
254.079773 124.0
258.001953 176.0
258.059509 156.0
259.051605 148.0
259.54837 160.0
267.099487 124.0
268.073425 384.0
268.102081 180.0
268.158905 152.0
268.558746 180.0
269.069885 164.0
271.098816 192.0
273.08252 180.0
274.046295 176.0
274.520966 220.0
281.098572 696.0
281.349518 152.0
282.100372 424.0
283.10495 192.0
283.865631 144.0
284.033325 144.0
285.096497 548.0
286.089539 156.0
291.015808 156.0
291.053162 156.0
294.122803 404.0
297.056519 172.0
297.09436 712.0
298.095734 172.0
299.083893 156.0
301.049072 200.0
302.577393 180.0
302.805908 164.0
307.963928 228.0
308.082703 152.0
308.116943 184.0
311.087341 144.0
315.080933 312.0
315.575714 248.0
316.040558 192.0
320.111938 168.0
322.056519 224.0
322.093475 168.0
325.090179 5416.0
326.091949 1644.0
327.08847 228.0
328.086304 140.0
335.609497 176.0
342.057434 148.0
345.075134 140.0
350.039764 164.0
358.58136 164.0
359.090332 184.0
359.614777 192.0
361.039124 160.0
362.163208 240.0
366.115234 504.0
367.121338 156.0
367.57309 164.0
370.081207 220.0
376.05835 152.0
380.167206 472.0
380.610992 168.0
381.601807 216.0
387.612793 168.0
388.098846 144.0
388.592926 168.0
393.864288 144.0
398.078491 896.0
399.083832 124.0
400.078186 168.0
401.601166 504.0
402.103546 428.0
402.600952 160.0
404.101105 144.0
411.981049 160.0
412.143219 840.0
412.267914 140.0
413.140717 172.0
432.113098 144.0
440.125366 116.0
444.605774 160.0
445.248108 220.0
446.125732 152.0
446.626678 156.0
450.112 148.0
456.122498 224.0
457.09903 280.0
458.136627 140.0
465.866913 140.0
471.814087 252.0
474.135101 204.0
477.872925 200.0
481.110352 744.0
481.622437 836.0
482.123993 908.0
482.222504 200.0
482.349579 188.0
482.611237 144.0
482.753937 144.0
482.856415 204.0
483.117157 364.0
483.625549 160.0
483.683228 120.0
483.8367 192.0
483.90036 164.0
483.981201 192.0
484.12735 43004.0
484.242249 104.0
484.444519 104.0
484.939056 176.0
485.129028 12492.0
485.265228 176.0
485.439392 168.0
485.621826 124.0
486.125946 3228.0
486.249512 296.0
487.131226 572.0
487.198395 288.0
487.768555 108.0
488.130798 304.0
488.238007 160.0
490.659454 140.0
500.097656 248.0
585.092163 120.0
586.110229 152.0
635.052063 172.0
659.176331 144.0
789.178528 116.0
1073.43457 160.0
1495.273071 156.0
1679.646606 172.0
1766.094238 148.0
1794.478516 192.0
