>compound Monensin
>formula C36H62O11
>ionization [M+Na]+
>parentmass 693.4184335040906
#inchi InChI=1S/C36H62O11/c1-10-34(31-20(3)16-26(43-31)28-19(2)15-21(4)36(41,18-37)46-28)12-11-27(44-34)33(8)13-14-35(47-33)17-25(38)22(5)30(45-35)23(6)29(42-9)24(7)32(39)40/h19-31,37-38,41H,10-18H2,1-9H3,(H,39,40)/t19-,20-,21+,22+,23-,24?,25-,26+,27+,28-,29+,30-,31+,33-,34-,35+,36-/m0/s1
#inchikey GAOZTHIDHYLHMS
#Ion_Source DI-ESI
#Instrument qTof
#Compound_Source Commercial
#PI Norberto Lopes
#Data_Collector Denise Silva
#Scan -1
#Precursor_MZ 693.406
#ExactMass 670.429
#Charge 1
#CAS_Number 17090-79-8
#Pubmed_ID  
#Smiles C[C@@H]([C@H](C(C)C(O)=O)OC)[C@](O1)([H])[C@H](C)[C@@H](O)C[C@]1(O2)CC[C@@]2(C)[C@@](O3)([H])CC[C@@]3(CC)[C@@](O4)([H])[C@@H](C)C[C@]4([H])[C@]5([H])[C@@H](C)C[C@@H](C)[C@](O)(CO)O5
#INCHI_AUX  
#Library_Class 3
#SpectrumID CCMSLIB00000081287
#IonMode Positive
#UpdateWorkflowName UPDATE-SINGLE-ANNOTATED-BRONZE
#LibraryQualityString Bronze
#TaskID 1408c08dd1b649aa9bd9168741c2c139
##Scan# 1
#SpectrumFile gnps_Monensin_pos_MplusNa.mgf
#LibraryName gnps_library.mgf
#MQScore -1
#Organism gnps_library
#TIC_Query 0
#RT_Query -1
#MZErrorPPM -1
#SharedPeaks 0
#MassDiff 0
#LibMZ -1
#SpecMZ 693.406
#SpecCharge 0
#internalFilename spec-00000.mgf

>collision 10
197.074402 11382.0
209.109772 2129.0
237.103912 9675.0
255.11467 13199.0
303.187256 2120.0
321.196289 5930.0
343.215088 1609.0
345.195251 1779.0
361.222992 2251.0
363.205872 4055.0
383.248016 1451.0
387.243378 3001.0
389.222687 1366.0
391.236084 2361.0
405.253418 10039.0
406.877228 2255.0
407.231018 2255.0
443.268524 41645.0
461.279053 254303.0
475.291229 1418.0
479.288635 230911.0
483.300415 25479.0
489.274902 5982.0
491.289551 5177.0
501.308746 85999.0
507.284485 7221.0
523.328674 3975.0
529.306152 1964.0
531.321777 2760.0
541.340942 18220.0
557.333496 1397.0
559.348145 8196.0
563.361755 6570.0
575.347168 2743.0
577.363342 12808.0
581.372681 48505.0
599.380493 45949.0
617.393127 18805.0
625.357178 2638.0
631.408081 1963.0
639.377136 2480.0
643.371765 4305.0
649.417847 2510.0
657.390076 29370.0
675.398865 116968.0
693.40564 134854.0
