>compound MLS001048914-01!1-(2,6-dihydroxyphenyl)dodecan-1-one
>formula C18H28O3
>ionization [M+H]+
>parentmass 293.212
#inchi InChI=1S/C18H28O3/c1-2-3-4-5-6-7-8-9-10-12-15(19)18-16(20)13-11-14-17(18)21/h11,13-14,20-21H,2-10,12H2,1H3
#inchikey WPFIJMIBEGNIHW
#Ion_Source LC-ESI
#Instrument qTof
#Compound_Source NIH Natural Product Library
#PI Dorrestein
#Data_Collector VVP/LMS
#Scan -1
#Precursor_MZ 293.212
#ExactMass 292.204
#Charge 1
#CAS_Number N/A
#Pubmed_ID N/A
#Smiles CCCCCCCCCCCC(=O)c1c(O)cccc1O
#INCHI_AUX N/A
#Library_Class 1
#SpectrumID CCMSLIB00000079405
#IonMode Positive
#UpdateWorkflowName UPDATE-SINGLE-ANNOTATED-GOLD
#LibraryQualityString Gold
#TaskID b1d8e8f6646f4e71acdff9ca3d919d08
##Scan# 3172
#SpectrumFile p1-H05_GH5_01_17961.mzXML
#LibraryName NIH_Natural_Products_Library.mgf
#MQScore -1
#Organism NIH_Natural_Products_Library
#TIC_Query 0
#RT_Query -1
#MZErrorPPM -1
#SharedPeaks 0
#MassDiff 0
#LibMZ -1
#SpecMZ 293.212
#SpecCharge 0
#internalFilename spec-00000.mgf

>collision 10
95.013802 128.0
95.048203 832.0
95.081711 172.0
95.314751 68.0
95.472206 96.0
96.079613 124.0
96.230209 152.0
96.361069 132.0
96.505699 92.0
96.88147 64.0
97.099045 132.0
97.436676 196.0
97.971786 248.0
98.019073 256.0
100.196625 140.0
100.362053 216.0
100.533607 192.0
100.585495 144.0
100.837166 156.0
102.044632 296.0
102.120354 148.0
102.301453 148.0
102.343727 84.0
102.569366 180.0
102.672195 208.0
102.896172 176.0
103.025429 156.0
103.053978 5232.0
103.116356 40.0
103.19722 60.0
103.964935 96.0
104.056236 612.0
104.551682 184.0
104.648354 96.0
104.825142 52.0
104.890358 180.0
105.068848 328.0
105.218803 196.0
105.247383 44.0
105.427147 84.0
106.404205 156.0
106.726776 144.0
107.018959 176.0
107.049202 3572.0
107.24897 92.0
107.282669 56.0
107.400208 76.0
107.435272 40.0
107.567345 48.0
107.583862 152.0
107.736687 56.0
107.780067 60.0
107.887543 144.0
107.920624 188.0
108.051979 204.0
108.709831 196.0
109.050377 160.0
109.104477 208.0
109.20269 160.0
109.64151 140.0
109.84584 88.0
109.872963 76.0
110.035751 156.0
110.069153 200.0
110.096306 132.0
110.138077 248.0
110.451614 64.0
110.472534 60.0
110.629486 144.0
110.885033 212.0
111.04232 1572.0
111.159752 72.0
111.212219 200.0
111.567223 136.0
111.769135 236.0
111.876472 112.0
112.044952 204.0
112.521149 208.0
112.855415 80.0
113.267639 92.0
113.327423 140.0
113.630608 184.0
114.372269 120.0
114.930626 176.0
115.054337 172.0
115.719322 116.0
115.734314 144.0
116.057861 168.0
116.132919 68.0
116.985992 224.0
117.068726 184.0
117.477325 68.0
118.333153 132.0
118.660309 164.0
118.692833 120.0
118.994423 128.0
119.04747 400.0
119.923309 184.0
120.08683 72.0
120.337784 164.0
120.567146 176.0
120.69175 160.0
120.960846 156.0
120.980545 188.0
121.029366 1020.0
121.064041 6996.0
121.133842 140.0
121.179848 76.0
121.276268 168.0
121.355186 48.0
121.379303 100.0
121.765541 92.0
122.031433 152.0
122.073456 848.0
122.319633 108.0
122.69854 156.0
122.824242 176.0
122.879387 52.0
122.93235 116.0
122.956619 108.0
122.996323 180.0
123.043724 18688.0
123.089081 104.0
123.133247 140.0
123.188469 72.0
123.28347 116.0
123.393997 72.0
123.416275 52.0
123.491295 124.0
123.606331 44.0
123.71257 64.0
123.765709 116.0
123.790062 80.0
123.82328 72.0
123.936684 104.0
123.988365 148.0
124.02047 40.0
124.047638 1652.0
124.149063 184.0
124.188988 76.0
124.257751 64.0
124.34523 76.0
124.604103 232.0
124.661873 60.0
124.810806 120.0
124.853058 148.0
124.875298 176.0
124.935356 72.0
124.997658 88.0
125.052177 144.0
125.096443 104.0
125.120071 124.0
125.138496 160.0
125.251457 60.0
125.817879 132.0
125.989845 48.0
126.533302 212.0
126.553452 88.0
126.645264 68.0
126.84021 140.0
127.054543 164.0
129.141434 84.0
130.274811 152.0
130.961777 84.0
131.048981 808.0
131.082092 172.0
131.552368 108.0
131.879013 68.0
132.05278 160.0
132.309067 244.0
132.471649 124.0
132.762741 184.0
133.054153 56.0
133.28154 120.0
133.426331 128.0
134.033966 348.0
135.04306 1420.0
135.079514 148.0
136.092606 196.0
136.65741 160.0
136.776093 100.0
136.967026 64.0
137.022186 1948.0
137.059723 924.0
137.1651 136.0
137.225708 48.0
137.412292 44.0
138.026871 324.0
138.059326 140.0
138.396118 260.0
138.653976 184.0
138.703186 168.0
138.759262 148.0
138.804001 196.0
138.954117 168.0
138.984619 116.0
139.005737 64.0
139.038712 14816.0
139.106659 96.0
139.140884 104.0
139.179443 140.0
139.22171 112.0
139.355606 72.0
139.837677 84.0
140.041199 1032.0
140.183868 44.0
140.282867 48.0
140.905899 100.0
141.04541 200.0
141.172989 100.0
141.423782 128.0
141.478226 152.0
142.964081 160.0
145.062714 148.0
145.519379 136.0
146.072128 104.0
147.040085 176.0
147.123734 52.0
147.86731 116.0
148.053726 132.0
148.90741 220.0
149.05928 5160.0
149.364365 84.0
149.612579 40.0
150.061066 440.0
150.148651 72.0
150.832306 96.0
151.081726 172.0
151.164917 140.0
151.257919 64.0
151.669434 64.0
152.427795 60.0
152.484314 68.0
153.055801 180.0
155.475159 96.0
160.049881 180.0
160.135513 148.0
162.022461 180.0
163.07692 688.0
163.520645 64.0
164.075943 84.0
165.080368 208.0
167.064636 216.0
174.10112 76.0
175.076797 180.0
177.06282 176.0
177.094589 192.0
177.256195 68.0
177.335709 84.0
179.87326 104.0
203.071198 148.0
219.893082 204.0
241.075272 88.0
247.164032 120.0
260.657532 92.0
261.133331 184.0
265.687988 108.0
268.765869 56.0
276.134491 120.0
276.200623 140.0
293.205597 468.0
336.688477 88.0
352.001678 48.0
353.58255 48.0
361.503387 76.0
361.772125 128.0
464.707306 108.0
713.98822 180.0
714.440369 76.0
775.426575 84.0
808.759766 176.0
832.63269 164.0
834.74176 168.0
864.057312 164.0
898.621704 160.0
900.675354 56.0
903.532776 188.0
910.648193 168.0
940.548157 224.0
947.133606 136.0
951.223633 92.0
953.26886 60.0
963.5802 188.0
972.147034 88.0
974.692993 132.0
976.545593 80.0
983.368042 200.0
989.719543 188.0
990.508606 144.0
990.80304 136.0
994.333374 108.0
996.537476 152.0
1003.271667 172.0
1009.687012 104.0
1014.930359 136.0
1034.07373 144.0
1040.554565 116.0
1042.565063 136.0
1051.74939 168.0
1055.257202 156.0
1057.709106 128.0
1059.535278 188.0
1063.555786 152.0
1064.912842 152.0
1070.362549 152.0
1076.02356 72.0
1084.119995 116.0
1093.294312 116.0
1094.057739 196.0
1094.689819 168.0
1097.721191 252.0
1101.403809 192.0
1101.469971 180.0
1106.317139 144.0
1106.410767 124.0
1106.780518 180.0
1108.304077 180.0
1110.531494 200.0
1117.626465 156.0
1120.32959 128.0
1121.175781 200.0
1127.669556 160.0
1135.744507 180.0
1135.938965 124.0
1136.415283 132.0
1136.938721 164.0
1141.923828 216.0
1142.818481 76.0
1144.137573 140.0
1148.463867 148.0
1152.264404 164.0
1152.852295 104.0
1160.379272 128.0
1174.258301 228.0
1178.729858 164.0
1180.192627 104.0
1184.538452 204.0
1194.546875 192.0
1198.967285 188.0
1202.222412 156.0
1204.176147 40.0
1205.253906 164.0
1216.390381 132.0
1216.501465 160.0
1218.286133 100.0
1222.283936 152.0
1222.9729 176.0
1229.670898 44.0
1231.695801 204.0
1234.477417 192.0
1236.016357 140.0
1236.198364 204.0
1237.290283 156.0
1244.66626 188.0
1248.383789 228.0
1252.155762 160.0
1254.614868 72.0
1254.967407 148.0
1261.165649 176.0
1267.705078 144.0
1268.640747 144.0
1268.973877 164.0
1269.877319 132.0
1276.208984 80.0
1278.357178 148.0
1281.604248 196.0
1282.338257 128.0
1282.737305 120.0
1283.072388 140.0
1284.14209 68.0
1286.182739 216.0
1286.710938 208.0
1290.998169 296.0
1296.037598 192.0
1296.297852 184.0
1296.410156 76.0
1304.283569 84.0
1305.980469 156.0
1311.640015 160.0
1312.591675 156.0
1313.031616 136.0
1315.701416 44.0
1316.24292 40.0
1316.358521 232.0
1317.037354 252.0
1325.241089 136.0
1325.610596 180.0
1327.509888 216.0
1328.416504 120.0
1328.801025 164.0
1329.875 84.0
1332.503784 136.0
1332.750732 132.0
1333.760986 124.0
1339.808105 108.0
1342.701904 160.0
1342.870483 164.0
1344.292358 140.0
1346.76001 196.0
1348.265015 140.0
1353.092773 172.0
1357.393799 220.0
1359.007446 108.0
1359.30835 144.0
1361.385742 212.0
1361.958618 140.0
1362.09082 116.0
1363.413452 188.0
1365.413086 84.0
1369.52002 160.0
1370.632446 172.0
1371.413574 208.0
1373.876465 140.0
1377.198364 172.0
1378.868042 160.0
1380.953003 136.0
1383.195068 128.0
1383.513306 160.0
1384.431519 188.0
1387.825317 128.0
1392.500488 140.0
1393.94165 112.0
1394.372681 164.0
1395.725708 208.0
1396.008301 172.0
1396.216553 228.0
1398.597412 140.0
1399.758789 148.0
1400.242798 68.0
1402.336426 196.0
1408.081299 224.0
1411.646118 156.0
1412.678223 88.0
1412.857788 208.0
1417.492432 228.0
1418.939087 160.0
1421.384277 168.0
1422.570068 204.0
1423.606201 140.0
1424.90564 144.0
1425.972656 152.0
1427.483765 188.0
1428.032837 140.0
1428.732422 168.0
1429.725586 84.0
1434.840088 124.0
1435.269897 184.0
1437.215942 152.0
1437.615845 172.0
1438.46875 224.0
1439.827881 248.0
1440.492554 156.0
1440.892944 72.0
1441.127197 120.0
1442.207764 104.0
1443.356934 136.0
1448.109497 204.0
1448.723022 212.0
1451.00415 52.0
1451.140625 112.0
1453.848633 164.0
1454.789795 140.0
1462.375977 160.0
1463.220947 92.0
1464.957275 160.0
1465.741943 112.0
1466.290649 244.0
1467.723877 112.0
1470.096191 188.0
1471.332764 196.0
1471.477783 188.0
1473.303101 188.0
1473.944824 92.0
1476.169312 92.0
1476.490479 160.0
1477.936279 104.0
1480.171387 148.0
1480.431763 252.0
1482.745361 36.0
1483.052002 208.0
1487.239868 148.0
1488.130371 132.0
1499.692627 188.0
