>compound Ramelteon
>formula C16H21NO2 
>ionization [M+H]+
>parentmass 260.165
#inchi InChI=1S/C16H21NO2/c1-2-15(18)17-9-7-12-4-3-11-5-6-14-13(16(11)12)8-10-19-14/h5-6,12H,2-4,7-10H2,1H3,(H,17,18)/t12-/m0/s1
#inchikey YLXDSYKOBKBWJQ
#Ion_Source LC-ESI
#Instrument qTof
#Compound_Source Isolated
#PI Sirenas
#Data_Collector Ed Esquenazi 
#Scan -1
#Precursor_MZ 260.165
#ExactMass 0.0
#Charge 1
#CAS_Number N/A
#Pubmed_ID N/A
#Smiles N/A
#INCHI_AUX N/A
#Library_Class 3
#SpectrumID CCMSLIB00000005639
#IonMode Positive
#UpdateWorkflowName UPDATE-SINGLE-ANNOTATED-BRONZE
#LibraryQualityString Bronze
#TaskID d19310cd93df49b68e9fcbec27720eb5
##Scan# 3
#SpectrumFile Ramelteon.mgf
#LibraryName fda_library.mgf
#MQScore -1
#Organism fda_library
#TIC_Query 0
#RT_Query -1
#MZErrorPPM -1
#SharedPeaks 0
#MassDiff 0
#LibMZ -1
#SpecMZ 260.165
#SpecCharge 0
#internalFilename spec-00000.mgf

>collision 10
100.074074 54.29874
101.370644 15.43939
101.825584 7.826705
102.043846 7.216216
102.18071 5.015012
102.43792 2.640625
102.504494 4.071747
102.529152 4.0
102.537941 7.933489
102.585526 4.809587
102.603142 4.401928
102.61898 2.960938
102.645454 4.905955
102.716476 2.285714
102.889046 4.242647
103.054375 1737.649048
103.097076 2.251953
103.108139 3.886837
103.190903 18.591061
103.277306 3.706759
103.313889 5.600347
103.355164 3.611111
103.408737 4.395089
103.419525 13.85169
103.437866 2.347222
103.528595 3.391984
103.542603 6.766129
103.590652 6.503125
103.624069 3.164063
103.651604 4.055804
103.857933 3.875295
104.287056 5.295956
104.408188 2.386837
104.526268 4.029018
104.549782 2.724507
104.563866 9.138982
104.578896 5.691667
104.59507 11.78381
104.651833 9.324852
104.660728 9.324595
104.673538 5.708333
104.701561 6.579649
104.726837 6.97017
104.735573 10.17872
104.753281 4.053571
104.76442 3.583807
104.776527 8.085809
104.810257 2.502604
104.881516 6.381053
104.917015 2.661458
104.988213 6.125284
105.033096 142.283905
105.070053 6126.825195
105.113091 69.684753
105.125923 11.90013
105.131561 3.147978
105.143112 1.926042
105.155006 10.60087
105.175316 9.633368
105.195442 3.291667
105.203568 3.76398
105.209541 6.011427
105.223808 4.750381
105.233131 5.480655
105.245224 4.583333
105.270226 9.348828
105.286072 23.19953
105.30954 2.768601
105.321915 23.409309
105.330139 2.926042
105.340347 4.403125
105.365288 20.132441
105.38224 9.77817
105.404045 11.46678
105.412453 20.263861
105.432846 3.109375
105.439552 8.546402
105.448753 3.764803
105.455894 4.01125
105.477654 3.496228
105.5 11.98643
105.509491 3.500401
105.535789 2.328125
105.620125 5.629536
105.699127 8.899601
105.849823 2.0
105.97113 3.375
105.999359 9.092188
106.258713 3.535022
106.304283 2.516984
106.46183 3.450625
106.476524 4.166667
106.504921 3.8875
106.533974 4.385558
106.72818 3.3875
106.857384 3.625319
107.049202 1596.651001
107.093468 9.730247
107.112862 1.875919
107.120064 2.668642
107.185051 3.008333
107.238914 2.540827
107.24659 5.167969
107.264137 4.262551
107.275742 2.556818
107.28936 3.828125
107.339737 3.131696
107.455185 1.756114
107.470085 3.517857
107.510559 8.309424
107.52401 3.030711
107.552574 5.387551
107.5634 3.375363
107.626678 4.132813
109.064507 55.207588
109.215027 1.665296
113.655006 7.148649
114.046013 31.033911
114.101044 32.109619
114.342018 5.92889
114.412598 3.381114
114.431244 5.753801
114.497604 5.268601
114.515411 8.191176
114.525078 3.641633
114.56279 3.510417
114.568878 4.129018
114.589417 6.204244
114.604576 12.84524
114.622322 33.38459
114.647171 17.1789
114.71228 3.171875
114.725327 3.126736
114.736504 6.706066
114.855835 3.242647
114.863289 8.125381
114.960205 5.627163
114.97097 3.242789
115.054451 7780.512207
115.100349 63.72736
115.113892 41.764339
115.133713 7.5
115.142303 32.376579
115.172951 4.928571
115.181419 8.645432
115.189156 33.62241
115.196373 4.200447
115.202881 8.146702
115.210335 10.52784
115.218979 5.287765
115.229141 5.657452
115.248718 11.02389
115.260017 32.14806
115.275879 19.47191
115.292496 17.01001
115.315262 15.88219
115.333504 3.006114
115.3498 9.112608
115.356499 4.390625
115.367126 5.50431
115.375969 12.3287
115.382072 3.762601
115.389549 4.885417
115.407906 7.220604
115.42231 15.92997
115.426933 4.63511
115.445992 6.336207
115.470421 3.208333
115.478203 10.71514
115.494209 2.520089
115.509163 3.626488
115.524124 5.7774
115.53437 15.67102
115.549385 3.828125
115.557693 7.500579
115.708374 6.731009
115.714638 5.875
115.741096 5.704445
115.809975 11.39631
115.868553 13.33662
116.003387 5.105014
116.012581 8.880023
116.062111 4024.062012
116.149437 6.3125
116.15976 11.45156
116.179955 3.984375
116.216904 3.384084
116.230797 6.27782
116.245575 24.585621
116.282059 27.198441
116.291489 8.306311
116.307472 7.819034
116.333923 4.174592
116.385513 8.022978
116.401184 8.781112
116.408241 10.42886
116.41951 5.25327
116.45462 3.290865
116.475822 5.626302
116.494186 9.305323
116.562202 7.436985
116.588341 22.592409
116.611183 7.242788
116.65226 8.04517
116.779915 3.416667
116.791603 3.626202
116.798943 3.504261
116.810226 9.784091
116.89296 7.574093
116.965164 12.01253
117.069992 3033.280029
117.114853 7.806945
117.124062 2.653125
117.133629 7.408088
117.140785 22.380899
117.212418 10.72609
117.227768 6.417528
117.250732 6.061731
117.260574 14.94682
117.273323 4.695652
117.324471 5.360294
117.344742 3.252841
117.362541 6.731737
117.371056 4.585747
117.39753 14.25438
117.431511 2.988407
117.448837 8.005208
117.461609 10.66455
117.470322 7.422867
117.487015 2.628125
117.503075 4.884698
117.514259 3.391984
117.540787 3.506579
117.552101 3.407452
117.609756 4.480152
117.618668 3.230114
117.669212 5.18
117.888039 3.258333
117.986244 4.023201
118.042511 296.937592
118.191422 3.6875
118.319489 8.134615
118.372154 7.459028
118.718475 2.944711
118.781158 2.153357
118.944283 2.13847
119.062019 10.75329
119.086227 691.401001
119.13269 0.626736
119.151955 2.155331
119.214615 6.111144
119.221382 3.126359
119.259369 5.758036
119.285133 3.348214
119.362114 2.480625
119.369331 3.055027
119.588226 2.90625
119.63578 2.629261
119.856583 4.646739
120.055992 33.590408
120.077583 2.516544
120.203423 2.250822
120.392303 2.234375
120.489655 2.055027
121.06472 288.676208
121.101486 3.752604
121.33419 2.5
121.634155 5.005682
121.791588 6.12827
122.097496 31.207769
122.156517 5.6312
123.197212 11.29856
123.212563 0.918403
124.440865 10.16753
124.567001 5.543064
126.040016 7.24179
126.071281 2.778846
126.348572 12.63437
126.379646 6.842231
126.404999 9.885966
126.436981 8.861144
126.469604 2.540827
127.033607 4.878606
127.054138 1686.886963
127.101196 9.735652
127.119881 2.375
127.139236 3.013889
127.147339 1.881114
127.190216 3.385557
127.214088 4.071368
127.241486 5.625381
127.268974 2.751645
127.312119 48.894772
127.398956 6.71542
127.437767 3.380625
127.454659 3.535022
127.533318 10.06217
127.569557 0.75142
127.583138 3.130435
127.649948 2.663352
127.736458 9.625
127.744301 2.250446
127.842171 2.224507
128.061966 1492.572998
128.110245 8.395833
128.128296 8.533611
128.148727 49.659618
128.154236 3.430804
128.213562 2.716056
128.244186 7.511111
128.259918 5.038793
128.279617 5.627163
128.291428 1.665296
128.299316 3.005208
128.323975 3.639205
128.334778 6.007386
128.346573 4.626953
128.375015 6.926136
128.393906 3.76125
128.406067 14.70189
128.421494 1.628125
128.432755 7.046113
128.449539 7.52381
128.497894 3.195313
128.509094 16.48543
128.516052 3.180804
128.564224 5.444481
128.641342 6.852851
128.713699 2.84375
128.7341 8.738686
128.816055 2.901316
128.891647 3.617789
128.92662 4.561677
128.944824 5.716845
129.070068 7774.770996
129.100479 2.250822
129.117111 64.052429
129.136063 4.941667
129.171646 6.357346
129.183929 29.36867
129.209335 10.81005
129.21965 11.85719
129.22998 36.62603
129.251083 5.840909
129.26178 4.819718
129.282364 3.376645
129.295166 19.74361
129.315369 24.19318
129.324921 5.571429
129.34787 9.50491
129.365463 3.25
129.374283 3.98981
129.390579 9.441332
129.402206 37.76516
129.419022 38.724892
129.446259 5.420921
129.460495 4.256177
129.477142 4.888936
129.492783 3.892857
129.519028 12.49788
129.542603 7.71875
129.549515 3.46875
129.556747 17.404619
129.570435 3.795037
129.62674 2.53125
129.638687 3.242647
129.670319 4.255435
129.694351 6.011161
130.039627 133.828094
130.134216 4.500381
130.153488 5.985137
130.201172 3.135817
130.29277 2.730625
130.308121 2.824449
130.328659 14.37334
130.342697 18.6619
130.353485 23.26799
130.368942 50.489491
130.388351 6.137977
130.425476 45.108608
130.435379 14.56833
130.447601 18.6119
130.463837 8.252778
130.482971 29.35055
130.514236 35.78582
130.527435 6.376157
130.567505 2.46503
130.584656 21.625311
130.602295 13.49591
130.618881 4.179018
130.631744 7.516054
130.649796 6.501202
130.66011 4.401401
130.679291 9.775
130.704346 4.984375
130.730743 2.617789
130.786026 7.141667
130.803146 1.403125
130.818665 8.014706
130.913239 7.010417
131.049271 9976.710938
131.085724 15916.070312
131.135757 79.87468
131.148224 9.657856
131.175735 4.264468
131.194565 17.77282
131.210037 15.12604
131.21991 3.000422
131.233688 18.140079
131.249496 42.78199
131.261398 26.26034
131.280441 26.08465
131.292542 29.43021
131.299988 6.3606
131.320587 65.744019
131.329132 55.733082
131.339081 23.467529
131.353455 16.16749
131.376053 19.890631
131.387939 21.162901
131.407501 43.230419
131.43457 23.572479
131.453171 50.524731
131.463364 32.600399
131.481979 12.44554
131.489441 15.8996
131.518707 11.44703
131.52446 19.2577
131.535309 4.480822
131.553391 24.48093
131.568497 4.115057
131.575378 3.505208
131.592896 12.81661
131.608597 25.875681
131.6185 6.139062
131.638855 7.215388
131.658035 7.28125
131.672028 33.03054
131.68718 33.33432
131.705734 18.005131
131.711212 7.035092
131.72847 27.750971
131.738541 6.626302
131.757751 49.64587
131.775818 12.61081
131.802414 6.751157
131.843231 10.37174
131.978882 7.770504
131.985199 7.099612
132.009796 12.67223
132.150085 3.558824
132.172745 13.79504
132.199112 12.7017
132.225082 32.40799
132.241058 44.340149
132.257568 16.68186
132.272095 33.285568
132.352509 13.66058
132.35968 4.634375
132.369186 20.99304
132.393097 12.62813
132.404816 20.86272
132.41275 18.278391
132.425934 10.69544
132.471649 5.061298
132.488556 7.855769
132.498245 12.0
132.515305 64.932854
132.543716 26.79117
132.559296 7.210801
132.571274 18.80172
132.593979 21.36937
132.621582 7.996228
132.630432 7.178686
132.642654 2.879464
132.682632 8.87642
132.708237 13.14966
132.790634 5.301339
132.802689 2.768601
132.836014 13.55008
132.85321 9.022684
132.902832 16.354891
132.927078 5.600806
132.934174 8.785714
132.984573 10.68678
133.023346 5.12931
133.06514 25556.189453
133.11377 87.229172
133.152161 14.10849
133.182037 10.46847
133.197296 7.807855
133.257675 7.54979
133.305252 50.760269
133.332321 49.459278
133.351868 9.822592
133.367325 38.483681
133.376846 6.736486
133.385788 10.92756
133.404388 36.07362
133.409424 13.58939
133.427399 35.687721
133.434692 7.486161
133.445145 24.661869
133.467468 45.48201
133.488419 42.22752
133.501114 4.758929
133.521362 3.375
133.529312 32.766331
133.545319 11.18469
133.55426 15.13119
133.562088 8.783967
133.572632 10.91502
133.587753 27.13658
133.60173 6.653186
133.618118 18.059259
133.633347 12.23063
133.672607 6.03616
133.683945 7.64617
133.695496 16.618601
133.711273 6.37642
133.718262 2.536458
133.772171 7.433239
133.778732 7.004032
133.810638 4.978604
133.820282 1.836806
133.855362 10.06822
133.885132 5.57257
134.068069 229.878601
134.260498 7.168403
134.392166 4.200447
134.50029 5.451562
134.508041 6.5062
134.596924 9.528287
134.65358 7.627404
134.794678 3.013393
135.081604 6.625265
135.10968 8.537192
135.219101 5.502232
135.247421 7.128591
135.429565 2.750822
136.072861 6.052827
136.755249 9.486779
137.110825 2.389467
137.124496 8.00024
137.143814 5.395432
137.714371 2.631114
138.466873 7.922852
139.051971 135.6371
139.889328 12.66694
139.94841 2.461539
140.061737 191.365707
140.188721 4.409091
140.213272 6.790179
140.224518 7.492411
140.239212 3.325
140.248962 5.407552
140.261597 3.550625
140.274261 8.801666
140.289871 6.695023
140.302505 3.500504
140.310287 6.838542
140.3396 4.764062
140.348679 5.15625
140.357849 32.712791
140.372208 2.430556
140.390717 7.422867
140.409805 2.977083
140.417923 8.393601
140.427353 5.782248
140.439957 6.889722
140.459656 20.794519
140.471909 3.933824
140.495911 20.894011
140.529343 2.751042
140.541611 7.625198
140.552536 3.015625
140.632355 3.125
140.65712 14.51325
140.689789 13.84862
140.753723 8.148602
140.785095 5.75327
140.877945 2.1875
140.899353 4.628472
140.975143 8.792356
141.029007 8.902454
141.045456 17.00054
141.070068 15263.759766
141.120239 68.976921
141.137589 3.390625
141.166275 7.791667
141.185867 9.537506
141.203812 14.38557
141.218124 31.31538
141.234467 27.54788
141.256241 32.92366
141.274017 49.116428
141.285797 27.87331
141.298264 38.120171
141.307495 3.097222
141.317719 38.026741
141.33046 2.783333
141.341171 12.58704
141.365845 18.450001
141.384247 8.764601
141.394272 15.00448
141.41423 17.671261
141.42572 11.6684
141.445374 71.737053
141.479889 9.345703
141.49939 11.72343
141.504959 14.36116
141.534729 9.515625
141.551025 18.909401
141.562149 2.645089
141.606552 18.73333
141.634369 5.229694
141.673569 3.508272
141.686783 9.842226
141.699997 28.044901
141.764832 12.30753
141.80751 4.182813
141.972992 8.128125
142.057816 9.984375
142.149353 4.86481
142.168015 9.731427
142.242325 14.11735
142.329529 2.527853
142.346954 10.85732
142.360504 10.71692
142.380005 14.13304
142.412491 24.93722
142.532379 4.375332
142.623947 15.59414
142.648697 3.526928
142.818695 4.460181
142.832672 14.32549
142.965134 3.445313
143.049454 497.524811
143.085327 2518.738037
143.143646 5.256945
143.183136 7.54739
143.21434 4.250446
143.237244 12.48118
143.25386 9.602083
143.307571 7.533333
143.324966 36.427959
143.344788 23.764681
143.365936 49.898392
143.384995 5.129261
143.398514 8.939108
143.425858 3.910156
143.451889 29.26693
143.475479 3.630208
143.494781 8.218953
143.501755 7.347826
143.523178 12.0125
143.547272 2.832201
143.565079 9.735465
143.664734 8.047619
143.681076 4.585747
143.696182 5.745066
143.728668 11.14399
143.743668 6.060606
143.87413 11.47194
143.9021 5.237961
144.002274 6.387153
144.030243 9.794764
144.05722 19545.939453
144.1017 1.140625
144.136963 3.920928
144.155273 21.12558
144.180832 38.44241
144.192795 6.252232
144.200928 20.75699
144.220474 7.111111
144.230621 32.783669
144.243103 38.76585
144.258118 13.64169
144.271179 16.66732
144.284439 41.8675
144.295486 14.30141
144.309387 35.721008
144.333878 32.124321
144.343506 17.67293
144.383698 18.275511
144.397644 21.19602
144.421722 15.26076
144.467163 13.60368
144.481842 8.630012
144.492752 17.387779
144.504486 3.227273
144.521027 7.775539
144.533691 23.646469
144.541321 1.895559
144.550858 6.421875
144.566452 9.880625
144.577911 6.700625
144.594055 26.636141
144.604126 7.625381
144.612625 5.098346
144.621201 4.660714
144.628754 10.49952
144.640976 7.048077
144.670547 30.94676
144.710709 11.75868
144.758682 7.00737
144.817749 6.551786
144.833511 29.787081
144.855179 3.125579
144.913635 9.644531
144.934738 3.776928
144.964874 30.434999
144.978424 7.629018
145.028091 28.033239
145.100403 483.115814
145.153305 13.90157
145.185043 11.89628
145.217926 6.696428
145.253983 11.93912
145.324509 4.126645
145.344742 23.435369
145.387909 49.869751
145.412674 6.533169
145.43483 3.675
145.466888 14.11291
145.490311 17.00305
145.551056 6.140865
145.571915 25.32214
145.623291 3.223214
145.632431 12.97256
145.676743 7.817398
145.685654 6.349114
145.696915 3.639205
145.733414 7.955296
145.765121 5.404433
145.795273 14.55219
145.811417 4.9856
145.94165 3.009084
146.052795 3.971154
146.072952 1103.348999
146.160126 5.760016
146.202499 4.715144
146.214966 6.129464
146.235992 6.903846
146.257706 6.101891
146.281525 8.522865
146.40448 13.87103
146.432343 2.361607
146.446625 3.536161
146.610641 3.884084
146.753906 2.885557
146.774979 5.4375
146.871933 2.875504
146.963287 4.085938
147.080002 932.259888
147.117157 19.587721
147.130219 7.990057
147.447937 6.858487
147.552551 3.78125
147.564178 5.254464
147.618698 11.16117
147.737503 2.250539
148.131958 2.556818
148.161743 4.225
148.258072 3.210069
148.945679 2.917245
150.439072 2.300625
151.049866 4.125
151.586075 8.450557
152.06134 197.833099
152.146591 6.344392
152.167923 7.505927
152.193619 3.626953
152.258011 5.001645
152.644028 6.404412
153.069702 598.365479
153.104919 5.591146
153.157394 5.341056
153.208878 1.959375
153.216782 2.941176
153.225403 4.759375
153.244507 6.620404
153.343842 2.96875
153.37616 4.376302
153.422791 6.392045
153.458023 4.653935
153.647873 7.124299
153.824631 3.242647
154.077255 1167.824951
154.128265 11.9048
154.162796 7.055099
154.209869 2.835938
154.230423 2.382401
154.308365 7.908088
154.321167 4.974201
154.34729 6.030172
154.355728 2.625
154.373032 4.282452
154.390259 4.250625
154.403275 2.875579
154.420502 5.55389
154.502716 7.012821
154.566818 5.091056
154.585541 14.1413
154.59848 5.768601
154.607513 3.165179
154.736313 3.505
154.758072 2.34375
154.779587 3.416118
154.898529 8.40601
155.053238 3.889706
155.061646 25.32445
155.199707 2.918403
155.342758 2.885557
155.844925 3.0
156.147934 8.695076
156.173325 7.543064
156.19812 5.034091
156.21286 4.413603
156.264282 6.549055
156.298141 6.222565
156.329773 8.834202
156.376968 2.642857
156.485214 2.502604
156.546143 3.503801
156.707245 3.051098
156.850891 16.906401
156.886047 2.878906
156.943527 3.641633
156.960114 3.398897
157.043045 79.629242
157.064789 4905.567871
157.100662 305.769012
157.113297 24.491739
157.136246 23.57103
157.15007 11.79911
157.171875 18.67734
157.194092 56.436951
157.203064 8.15125
157.216614 40.73167
157.242661 63.486012
157.254532 64.866226
157.273529 47.94986
157.280182 9.960206
157.293259 27.58857
157.326874 43.45023
157.373932 9.382212
157.393402 13.1775
157.401871 59.05727
157.422318 22.941811
157.441528 58.443081
157.47142 15.42969
157.487717 2.126042
157.500977 80.194283
157.513016 18.18758
157.524231 16.401211
157.563675 6.394676
157.654388 13.67232
157.719223 3.548478
157.731918 17.07407
157.783569 12.87825
157.810226 2.551042
157.889206 9.464489
157.963974 7.666119
157.981354 7.761779
158.072815 16142.429688
158.126266 95.993446
158.144394 16.9375
158.161911 21.15233
158.198471 31.08342
158.225891 34.139561
158.275055 37.720188
158.299606 129.975601
158.318756 16.745899
158.330872 51.912491
158.346695 71.203659
158.367371 50.044121
158.380524 36.240669
158.426743 63.200562
158.471039 138.842194
158.52832 31.00325
158.548157 8.279568
158.558899 23.94101
158.574768 3.893601
158.586411 31.08371
158.597 17.48538
158.604263 12.80469
158.614639 8.860828
158.628143 18.47061
158.646423 66.814949
158.658752 46.235359
158.668747 19.32308
158.682175 71.731339
158.694077 15.54688
158.71022 20.059019
158.722748 22.00038
158.753357 57.869732
158.771255 19.47941
158.779739 10.75723
158.812332 26.020309
158.847107 20.993429
158.857208 3.750422
158.909912 8.456408
158.945282 28.25886
158.956436 11.51442
159.014328 16.69726
159.042618 6.792969
159.051315 51.738659
159.080933 80064.796875
159.453278 15.03396
159.486252 5.814063
159.500183 26.432581
159.512375 49.881721
159.52652 12.29218
159.543365 84.830307
159.556061 45.358681
159.578323 32.604321
159.599304 55.930969
159.617294 9.982174
159.631088 29.3818
159.695511 92.237411
159.730011 47.956749
159.761917 42.57896
159.776642 83.510117
159.793304 6.685481
159.813065 45.871189
159.845901 21.12195
159.864929 12.85251
159.878601 19.75197
159.887085 39.900249
159.896652 12.52294
159.90741 17.150431
159.956314 19.905519
159.973541 33.147388
159.990494 2.877404
160.027191 17.60948
160.055023 19.369579
160.157745 2.627604
160.183929 15.32407
160.203125 2.028125
160.285507 5.250265
160.298843 6.041724
160.329498 1.752604
160.365433 17.640671
160.40538 8.480575
160.417435 27.41787
160.439514 3.635417
160.456161 16.322689
160.482422 3.335938
160.797928 22.256861
160.926376 1.910714
160.995346 6.002163
161.047638 32.77602
161.146072 5.145089
161.168518 4.762216
161.235901 19.74683
161.251343 4.750744
161.269669 7.459375
161.281174 3.255208
161.310562 5.532248
161.344254 5.00868
161.363968 7.102083
161.384262 13.37428
161.432785 4.480263
161.565277 3.375319
161.601379 14.51704
161.655136 20.27932
161.711517 3.283203
161.7202 6.001042
161.740723 12.77578
161.831635 4.025
161.866394 4.278357
161.907104 4.009375
162.029968 9.397959
162.042725 20.18676
162.078629 4.75
162.128723 10.88891
162.262192 4.650625
162.322388 6.616417
162.452576 2.066406
162.620392 7.000347
162.672668 2.904412
162.725906 4.01392
162.740265 8.834727
162.752563 5.4
162.792496 8.007031
163.349472 3.977083
163.411194 4.383928
163.820572 12.92696
163.887314 13.17149
163.993225 6.308848
164.472092 3.471154
164.756668 2.930625
164.858582 7.375256
165.069397 23.59396
165.140091 5.032552
165.242935 2.25
165.726257 3.25
166.077103 23.243521
166.184738 2.750744
166.259644 2.774698
166.546936 5.3606
166.62326 10.30288
167.085785 198.199799
167.414474 3.928571
167.630569 6.37963
167.720703 2.87843
168.21666 2.385417
168.239227 3.000579
168.545685 2.38125
168.772018 8.128788
169.063049 34.27372
169.102066 396.069885
169.206253 1.752404
169.215805 5.580592
169.246994 3.912071
169.367508 7.361328
169.396729 5.637601
169.629257 2.909091
169.740662 6.561738
170.007401 13.65837
170.072372 559.651123
170.128571 5.751736
170.141281 5.3625
170.194519 4.798828
170.21492 3.768601
170.244141 3.270693
170.279678 2.750422
170.303162 3.520693
170.525696 7.571037
170.552948 2.010417
170.575668 4.924827
170.830948 5.834491
170.843918 1.816612
170.888748 11.80269
170.899643 19.041451
171.061172 5.341056
171.080475 1878.484985
171.114471 19.95862
171.134827 10.64985
171.149887 41.56374
171.170746 4.840074
171.187607 49.906132
171.205154 24.953951
171.226089 5.522727
171.238571 2.663942
171.257278 13.28994
171.276581 15.66844
171.29129 18.751419
171.31897 17.835279
171.347549 65.08036
171.36377 6.840517
171.380997 8.658059
171.435486 4.259527
171.449203 9.932279
171.481033 16.777241
171.494904 1.699449
171.51561 2.03125
171.585678 3.734578
171.713852 2.453125
171.752289 8.045649
171.779556 3.328125
171.87561 47.825008
171.900482 6.522204
171.909531 5.0274
171.95137 7.05382
172.058334 82.106216
172.088425 14309.990234
172.161682 20.559311
172.228561 42.16872
172.254486 46.508869
172.283417 29.75095
172.301712 10.59263
172.317139 34.276138
172.360825 18.63027
172.389206 30.326981
172.405731 34.78727
172.425919 27.28507
172.435532 7.444853
172.446075 20.29895
172.45665 14.6274
172.471039 1.750679
172.487564 7.814285
172.495071 20.07761
172.517105 1.9375
172.528061 16.711109
172.537827 15.82326
172.573181 19.20867
172.588242 12.57283
172.606781 7.439507
172.61557 15.18075
172.630814 21.11886
172.64473 8.151786
172.659561 22.819719
172.684097 29.61149
172.693649 3.647978
172.713745 17.45018
172.740768 11.11334
172.760544 2.722356
172.781631 25.22946
172.823563 9.534375
172.845886 3.002604
172.855026 2.377604
172.877808 8.403125
172.934692 7.210011
172.950806 29.29212
173.229813 2.040179
173.298981 3.62843
173.702225 4.253801
173.74408 13.15587
173.808136 7.185606
173.89386 4.681956
173.959412 3.283203
174.262054 5.875256
174.579071 4.395833
174.887253 3.455019
175.111862 81.603363
175.232407 3.388393
175.439713 3.345017
176.106415 39.77158
176.161819 1.225
181.490509 3.439405
183.08226 7.642578
184.082413 6.853571
184.092636 6.736607
184.108322 12.23969
184.144745 9.567299
184.161331 2.160511
184.705643 4.875284
184.819138 4.939516
184.87117 3.626953
185.095718 899.898926
185.145615 4.5
185.159927 3.315194
185.216629 4.668269
185.240372 3.242647
185.258682 10.29532
185.295807 8.533472
185.311325 5.512153
185.400757 1.25142
185.466949 2.625
185.487823 4.779018
185.528549 1.821429
185.619965 29.390551
185.859558 4.930625
185.972565 3.703125
185.989166 5.38083
186.004791 18.717991
186.028671 39.142132
186.050797 8.932693
186.066605 25.44154
186.132767 30.59812
186.156342 7.699519
186.171417 18.732889
186.185959 93.057571
186.213242 5.333681
186.226196 15.40601
186.253876 6.84489
186.286224 8.59517
186.304031 8.651989
186.325134 5.890625
186.368408 2.778846
186.432693 2.785714
186.443115 9.906796
186.473755 4.589286
186.484528 3.68641
186.524704 5.501488
186.674911 4.413103
186.765305 5.319445
186.844269 1.5625
186.944077 6.64793
186.958298 7.5
186.981934 3.070023
187.053574 3.125
187.071609 20.40024
187.085709 19.976561
187.112137 14785.089844
187.225845 16.825979
187.26442 26.94623
187.281219 9.222849
187.297485 26.966
187.323578 48.049389
187.33931 37.799721
187.358078 5.11679
187.382233 48.349659
187.410248 49.699871
187.425446 13.89663
187.440384 16.2985
187.453201 17.032511
187.471329 61.403622
187.514603 42.806759
187.535904 12.01663
187.550446 10.79385
187.567001 15.93814
187.586792 33.0895
187.605133 39.776901
187.638748 13.66623
187.664215 11.8141
187.677246 3.887601
187.705597 18.261311
187.750458 9.755678
187.798965 15.13359
187.810516 4.080019
187.863007 7.19947
188.351334 12.94518
188.397415 5.926042
188.496094 9.5625
189.081055 2.26875
189.105438 2.897978
189.18631 2.894631
189.382538 4.644631
189.427567 6.058843
189.487854 5.131579
189.756042 2.545455
189.775528 5.214918
190.444122 7.237362
190.581421 2.988407
190.970734 5.756945
191.006241 22.278879
191.292816 6.349864
195.534927 8.602557
199.111755 20.110121
199.692673 4.12963
202.122879 12.83419
203.353958 4.501488
204.138458 335.542206
204.609268 2.852083
204.6689 4.152902
206.494537 7.170455
210.100281 12.40613
211.690948 5.319471
212.101425 19.37512
214.636887 6.2562
221.796387 3.889706
237.555588 2.236607
280.946442 2.4375
302.139343 6.926042
307.979889 4.033333
309.468658 4.637784
374.43457 9.0
462.166443 6.595052
474.612823 4.109375
498.760468 10.725
508.830902 3.640625
553.211304 3.500401
555.717957 4.398809
562.347656 3.148809
667.103394 11.25216
669.648132 4.000295
855.317261 4.26392
982.190369 2.852083
998.227722 3.767805
1074.413574 9.382401
1181.046387 1.125919
1197.301758 3.895
1199.464478 7.363921
1238.305298 5.410022
1458.914307 6.481009
1559.092529 4.126302
1606.843628 4.267857
1657.536377 5.898201
1678.644775 6.423205
