>compound MLS001332409-01!N-Benzyl-2-nitro-1H-imidazole-1-acetamide22994-85-0
>formula C12H12N4O3
>ionization [M+H]+
>parentmass 261.098
#inchi InChI=1S/C12H12N4O3/c17-11(14-8-10-4-2-1-3-5-10)9-15-7-6-13-12(15)16(18)19/h1-7H,8-9H2,(H,14,17)
#inchikey CULUWZNBISUWAS
#Ion_Source LC-ESI
#Instrument qTof
#Compound_Source NIH Pharmacologically Active Library
#PI Dorrestein
#Data_Collector VP/LMS
#Scan -1
#Precursor_MZ 261.098
#ExactMass 260.091
#Charge 1
#CAS_Number N/A
#Pubmed_ID N/A
#Smiles [O-][N+](=O)c1nccn1CC(=O)NCc2ccccc2
#INCHI_AUX N/A
#Library_Class 1
#SpectrumID CCMSLIB00000085200
#IonMode Positive
#UpdateWorkflowName UPDATE-SINGLE-ANNOTATED-GOLD
#LibraryQualityString Gold
#TaskID d252d724072548979f1f6f1ced849daf
##Scan# 1551
#SpectrumFile p3-F11_GF11_01_18292.mzXML
#LibraryName Pharm_Active_Library.mgf
#MQScore -1
#Organism Pharm_Active_Library
#TIC_Query 0
#RT_Query -1
#MZErrorPPM -1
#SharedPeaks 0
#MassDiff 0
#LibMZ -1
#SpecMZ 261.098
#SpecCharge 0
#internalFilename spec-00000.mgf

>collision 10
45.414391 104.0
47.428188 160.0
48.326164 80.0
48.370453 188.0
49.003777 128.0
50.938404 196.0
51.601131 160.0
52.608311 180.0
53.85577 236.0
54.146847 176.0
54.697491 212.0
56.218292 160.0
60.910461 120.0
61.4944 116.0
62.258469 108.0
66.334244 204.0
67.889824 108.0
68.228088 144.0
71.013123 36.0
72.354553 196.0
73.373978 184.0
74.042137 168.0
75.795959 236.0
79.602974 64.0
80.915382 168.0
81.309761 80.0
81.36721 176.0
82.390221 176.0
86.612831 124.0
88.628738 188.0
89.950951 104.0
90.153053 208.0
90.975136 188.0
91.016907 212.0
91.052437 2468.0
91.123276 124.0
91.275345 88.0
91.839088 88.0
92.057381 280.0
92.284073 128.0
93.42527 76.0
93.463753 64.0
96.112755 60.0
97.035995 176.0
98.050362 152.0
100.657257 112.0
101.696342 168.0
102.323563 184.0
103.048454 132.0
103.863541 184.0
104.065865 196.0
104.680603 40.0
105.063637 192.0
106.066048 192.0
107.048149 876.0
107.155113 40.0
107.367439 56.0
108.048988 124.0
109.063217 220.0
109.192131 132.0
110.412262 80.0
114.032524 220.0
116.101425 180.0
117.054375 208.0
118.062584 2044.0
118.098061 120.0
118.126183 72.0
119.063164 236.0
119.234215 100.0
119.839188 64.0
120.04628 176.0
120.074295 156.0
121.977463 144.0
127.038788 32.0
128.04808 208.0
130.055954 136.0
131.061188 136.0
133.048828 176.0
136.047897 152.0
136.931534 176.0
138.958344 180.0
145.044189 92.0
146.057587 504.0
147.050293 196.0
147.067673 180.0
147.180649 44.0
148.076767 192.0
149.082321 144.0
154.026947 376.0
157.074814 364.0
174.131149 156.0
175.89537 256.0
179.917389 40.0
187.091843 168.0
189.972366 192.0
192.228607 76.0
197.071533 164.0
200.038849 140.0
203.948273 156.0
205.069763 140.0
209.117035 112.0
210.93692 228.0
216.948914 264.0
220.930679 164.0
230.085434 116.0
231.188751 104.0
257.948181 172.0
737.86261 172.0
776.87677 136.0
813.418152 128.0
843.476624 208.0
859.13916 184.0
908.796387 212.0
918.633423 148.0
920.250916 168.0
939.973022 144.0
940.180481 132.0
944.237305 48.0
968.16687 200.0
975.097046 176.0
1000.998413 188.0
1046.511597 72.0
1054.116821 116.0
1061.328125 84.0
1076.542725 148.0
1089.295532 236.0
1092.905029 180.0
1099.85144 196.0
1115.598022 200.0
1127.710205 228.0
1134.122681 208.0
1135.430176 156.0
1151.637817 124.0
1153.557007 180.0
1168.940186 300.0
1169.450562 164.0
1177.223022 236.0
1185.850464 192.0
1187.983032 108.0
1211.887085 120.0
1214.826782 136.0
1217.839478 160.0
1222.511719 156.0
1232.442383 172.0
1235.294556 212.0
1235.553345 48.0
1241.900269 236.0
1248.783813 52.0
1249.318359 152.0
1249.564697 172.0
1250.16272 136.0
1258.015015 200.0
1261.511963 128.0
1267.818726 112.0
1304.946899 184.0
1313.870728 104.0
1323.071167 136.0
1342.618286 140.0
1345.50061 184.0
1364.491455 116.0
1375.297729 184.0
1376.797607 76.0
1391.660156 148.0
1393.784668 176.0
1393.918335 228.0
1416.02417 208.0
1430.471436 216.0
1437.926392 152.0
1442.948853 120.0
1450.884644 184.0
1453.653198 172.0
1479.087402 232.0
1484.235962 168.0
1490.930176 136.0
1499.612061 172.0
1505.120483 204.0
