>compound MycophenolateMofetil
>formula C23H31NO7 
>ionization [M+H]+
>parentmass 434.219
#inchi InChI=1S/C23H31NO7/c1-15(5-7-19(25)30-13-10-24-8-11-29-12-9-24)4-6-17-21(26)20-18(14-31-23(20)27)16(2)22(17)28-3/h4,26H,5-14H2,1-3H3/b15-4+
#inchikey RTGDFNSFWBGLEC
#Ion_Source LC-ESI
#Instrument qTof
#Compound_Source Isolated
#PI Sirenas
#Data_Collector Ed Esquenazi 
#Scan -1
#Precursor_MZ 434.219
#ExactMass 0.0
#Charge 1
#CAS_Number N/A
#Pubmed_ID N/A
#Smiles N/A
#INCHI_AUX N/A
#Library_Class 3
#SpectrumID CCMSLIB00000004631
#IonMode Positive
#UpdateWorkflowName UPDATE-SINGLE-ANNOTATED-BRONZE
#LibraryQualityString Bronze
#TaskID d19310cd93df49b68e9fcbec27720eb5
##Scan# 3
#SpectrumFile MycophenolateMofetil.mgf
#LibraryName fda_library.mgf
#MQScore -1
#Organism fda_library
#TIC_Query 0
#RT_Query -1
#MZErrorPPM -1
#SharedPeaks 0
#MassDiff 0
#LibMZ -1
#SpecMZ 434.219
#SpecCharge 0
#internalFilename spec-00000.mgf

>collision 10
100.046555 54.557732
100.074883 41.69849
101.078941 89.194221
102.046715 90.083214
102.089844 74.337646
103.054123 1956.317993
103.114296 42.668209
103.328873 25.2875
103.598885 26.25312
105.030792 23.004311
105.07016 219.612
107.050903 281.116486
107.173859 18.38007
107.231308 17.066669
107.287308 20.074409
108.055725 85.643677
108.463066 28.29611
108.510017 23.570311
108.663513 37.31488
109.064484 6753.515137
109.109093 47.621368
109.15638 21.034719
109.193359 54.140739
109.239998 18.73558
109.279999 27.507311
109.545692 33.355511
109.900116 20.464939
110.337196 27.000931
111.039146 49.020828
111.348076 29.0
111.759628 24.55018
112.07589 506.582214
112.7696 31.27174
113.059944 315.604614
113.14312 19.27083
113.361412 29.94899
113.387962 21.622499
113.402138 36.180149
113.424614 75.505676
113.443153 44.034088
113.463646 107.214897
113.477318 99.901917
113.492783 553.963318
113.506142 111.1912
113.514526 444.219299
113.534843 210.703293
113.551041 90.125
113.562057 133.0979
113.590286 274.568115
113.601418 104.002998
113.62838 121.306297
113.657875 238.865601
113.683601 94.236366
113.703911 108.229599
113.722176 117.420502
113.745171 74.58036
113.75515 33.117649
113.772606 61.86507
113.790947 98.043114
113.81279 30.377569
113.8339 53.575001
113.860291 37.566669
113.867897 76.864288
113.891792 23.390631
113.916885 58.05563
113.951126 68.177643
113.979347 44.86742
114.024994 29.93103
114.050552 62.9025
114.091759 379302.5
114.412575 41.409519
114.425598 250.034302
114.445374 305.452606
114.469437 161.631805
114.539238 135.148102
114.566391 166.031998
114.579689 164.727905
114.595787 170.809402
114.638718 161.382599
114.657021 201.911407
114.667183 66.751068
114.688797 107.1353
114.701973 95.548279
114.718613 176.936005
114.725052 71.307404
114.739647 86.62162
114.75528 16.74968
114.779625 39.541672
114.797058 36.980259
114.813065 40.16346
114.827263 46.89399
114.841194 55.390572
114.863991 29.17654
114.877792 22.15859
114.905655 44.33696
115.000359 40.05563
115.052559 154.963898
115.157555 291.009308
115.17276 40.363319
115.185165 45.40707
115.207794 52.000809
115.245308 40.920921
115.271164 45.721619
115.299606 20.46023
115.314781 47.489861
115.321861 24.504311
115.33551 67.268478
115.354881 20.24493
115.392311 17.225
115.399933 32.444851
115.427185 41.940109
115.436249 22.03846
115.530022 27.1875
115.673965 69.249733
115.756783 40.23373
115.834595 38.680851
116.19397 22.01852
116.742096 20.506941
116.862831 28.450661
116.983582 29.67482
117.036736 124.358299
117.073441 54.165699
117.332581 27.66806
117.824226 27.66766
119.050201 81.01313
119.085655 196.112793
119.32814 43.714882
119.829475 35.731621
121.063797 395.448914
123.080765 141.510696
124.051247 218.378693
125.058929 187.414993
125.155258 23.805
127.054321 88.333344
127.077896 185.590103
127.088432 68.137497
128.062927 92.380043
129.069397 49.772251
130.084686 666.462524
130.341049 44.112259
131.049423 613.952576
131.243301 22.50543
131.269882 25.66827
131.330368 25.630211
131.405579 44.501331
131.438843 46.15094
131.486603 17.54348
131.526535 29.007311
131.583374 33.611488
131.650345 20.64464
131.67627 61.796242
131.718063 37.579609
131.87587 25.257811
132.101959 23571.160156
132.150223 126.938499
132.197189 31.37879
132.229721 49.68647
132.268265 30.150511
132.303192 36.340279
132.323074 58.32045
132.341049 31.574409
132.353607 28.0
132.369659 18.03125
132.393265 33.85714
132.437469 25.389111
132.465698 24.5
132.490158 47.505459
132.510391 84.987923
132.536407 38.723209
132.560257 27.223221
132.574142 28.042231
132.586227 22.02471
132.601669 35.55714
132.634003 23.504169
132.701874 18.71607
132.732605 77.339996
132.810196 46.898338
132.835342 24.88903
133.063812 53.02177
133.103668 49.282589
133.12291 35.600811
133.167343 24.19264
133.284256 17.0375
133.659073 44.387772
134.128311 75.578239
134.754166 28.39646
135.041107 82.22802
135.07991 1191.255005
136.048569 34.746712
137.056885 58.257599
138.56369 49.16964
138.642258 39.613171
139.074066 2114.352051
139.329239 52.559292
140.776764 61.461071
141.089722 1272.802979
141.247177 22.61574
141.466965 23.237499
141.776901 43.612671
142.076355 246.231796
144.018524 29.517241
144.051987 78.025642
144.094299 55.202412
145.098312 22.88942
146.647446 23.06818
147.042953 345.653809
147.078293 236.931793
148.080673 109.132103
148.218155 35.640991
148.524658 39.96711
148.834106 29.527439
149.059128 2310.084961
149.224991 21.960461
149.363266 28.320311
149.684143 32.06377
149.769073 26.148279
149.927078 25.796301
151.036942 147.869995
151.073746 163.960007
153.069809 35.069439
153.087189 98.031891
153.095901 93.604378
157.099884 499.712097
158.181717 77.408836
158.336792 57.198372
158.421188 28.5
158.533325 25.725771
158.554199 21.4879
158.646149 20.41667
158.72168 17.222219
158.817261 25.327209
158.834778 29.640631
159.006271 53.3125
159.018585 87.602654
159.043732 30208.279297
159.114777 400.821991
159.162994 32.636829
159.17717 97.154266
159.19725 126.392799
159.215836 58.106319
159.233398 29.06793
159.256546 18.082661
159.267883 66.501793
159.311401 58.506939
159.32016 25.68371
159.346863 24.51786
159.381546 104.450203
159.396469 21.50329
159.4095 25.00099
159.419388 24.1777
159.443054 21.5194
159.484192 21.07556
159.503815 82.564613
159.538895 70.10054
159.557434 45.685181
159.575745 22.122499
159.599884 56.24802
159.64978 22.00481
159.665588 19.723221
159.769684 47.933041
159.822662 35.5
159.938126 37.643669
159.958511 42.62019
160.142944 33.5947
160.284912 42.668812
161.058807 1370.275024
161.091965 161.875198
162.027298 52.207111
163.078323 62.846691
165.016891 82.724998
165.050674 153.984406
167.067749 21.65761
168.077637 26.05592
169.062531 53.168751
169.097916 26.223221
170.068542 35.15308
171.077667 54.4375
172.078018 37.520409
173.057755 87.541939
173.101562 67.516129
174.103119 591.901611
175.074829 1236.516968
175.761703 27.5625
176.20932 19.27586
177.053543 3501.23291
177.236023 20.983549
177.257507 28.74617
177.472824 58.095589
177.731995 37.053291
177.959564 33.740829
178.88414 41.252079
179.069763 773.56842
179.853104 21.00128
180.040848 273.559113
180.273926 49.58065
183.077698 164.125793
183.110764 23.342991
186.06218 26.21607
186.101761 40.095242
186.302658 21.11128
186.947983 25.52029
187.039047 406.491394
187.074112 198.999802
187.109207 83.864227
187.71022 26.5625
189.091568 352.929413
189.1259 950.405884
189.204636 21.60417
191.067795 285.125885
191.157394 45.15984
191.841003 28.908779
192.04097 55.745098
192.052841 56.013828
193.049866 1753.036011
193.102814 183.768295
193.874496 66.401573
193.912888 34.226849
193.9478 37.380032
193.961044 68.118111
193.986618 39.216351
194.005753 77.504227
194.038986 61.5
194.070709 76.925926
194.138718 23.62331
194.150925 52.002121
194.17775 42.49612
194.267746 39.080021
194.354675 21.503469
194.406082 19.5625
194.49498 22.04348
194.923569 17.1056
195.065338 72249.90625
195.334137 72.028603
195.379303 88.699043
195.417114 55.512562
195.429031 91.651031
195.441696 54.979809
195.462952 93.258476
195.481796 67.616096
195.498672 86.071747
195.539917 57.49036
195.564987 36.224739
195.606323 45.522732
195.627701 158.343307
195.647232 123.207199
195.664337 34.893909
195.711121 24.902639
195.739304 25.28014
195.754562 73.802689
195.800293 57.116661
195.828995 42.787571
195.856277 42.19017
195.895325 64.290916
195.915985 41.555851
196.174927 31.010229
196.238739 23.13636
196.261703 40.612801
196.446625 29.9375
196.670105 24.377569
196.713242 28.532261
196.900665 27.501101
196.914581 36.206619
197.057281 85.421913
197.09314 60.778221
197.10466 22.94643
197.671524 29.037809
198.099182 97.724518
199.115311 35.0625
200.082626 271.287994
201.054718 170.339905
201.259628 27.458691
202.098175 1721.405029
202.132645 42.50106
203.073608 37.501179
204.037308 29.92857
205.04747 707.213928
205.836044 56.397961
205.864197 24.557779
205.881134 25.58333
205.90329 55.74831
205.921875 52.328129
205.933792 46.57122
205.952286 21.5
205.987411 31.010611
206.010605 63.88192
206.064926 23.38942
206.100082 31.89127
206.124176 29.347111
206.163773 20.18445
206.243332 70.0354
206.289688 37.840801
206.353714 24.26959
206.598526 37.00771
206.676163 18.9375
206.703674 20.39583
207.041061 36.960232
207.065063 48356.109375
207.299484 200.973801
207.322281 50.045712
207.359268 92.253258
207.373383 103.057098
207.384766 35.274899
207.403473 63.08717
207.4198 114.9282
207.462296 22.031361
207.483597 71.312561
207.522797 183.412903
207.536072 108.574097
207.577942 84.445374
207.640533 95.617249
207.678131 39.415112
207.689789 51.569351
207.700775 81.326691
207.726242 36.132679
207.765396 25.501181
207.784348 83.493988
207.828033 32.025421
207.981201 45.83532
208.658783 25.02273
208.718475 18.702499
209.092072 43.900661
209.252686 33.809071
209.277481 22.222219
209.460922 23.52261
210.103851 41.719009
211.073517 55.889709
211.111557 107.082901
211.143723 23.067499
212.087509 96.0
213.089706 94.157547
213.127548 202.167694
215.068481 135.3405
215.110199 26.08036
216.110809 299.670898
216.506454 27.955641
217.047775 286.794098
217.120987 777.49823
217.160919 29.628571
217.5784 28.84004
217.684357 31.577959
219.063766 660.77533
219.098724 118.655899
219.438492 36.60651
219.548965 24.0
221.080078 156.297394
223.082611 292.275299
223.112793 81.628197
224.091522 60.563831
225.055023 21.8125
226.092453 169.895096
227.074188 60.027409
228.076172 61.056881
228.103699 65.160782
228.158218 262.806091
229.084915 177.694702
229.11879 60.5625
229.481171 24.571301
230.089737 172.925201
231.061844 384.552185
231.09906 76.921967
232.070374 163.036301
233.079636 332.001404
233.929352 17.75568
236.089584 56.50061
238.269958 20.921881
239.071457 50.14204
239.105774 794.668823
239.248306 31.80488
241.121765 768.004822
241.39595 27.778219
242.093903 56.49432
243.099594 583.374084
246.08931 72.122543
247.098633 68.252289
251.067413 52.51136
252.073746 197.331894
253.082657 99.706673
254.090469 62.556332
254.142868 34.790321
255.063248 167.054596
255.098801 112.305
255.407745 22.0
255.941788 26.007311
257.081726 56.337502
257.116486 197.749405
258.785095 26.78072
259.09491 106.198097
260.649445 27.80969
260.954193 27.66667
261.04834 54.000671
261.111481 3051.474121
261.252777 22.278851
261.284149 27.71875
261.630432 20.0625
267.058594 29.6875
267.101959 266.034698
268.395386 28.04327
269.079529 456.045197
269.27359 18.66806
270.087982 1015.060974
270.361938 28.331369
270.905304 21.92857
275.128235 284.714111
283.220337 23.11364
283.290771 41.90139
283.402924 24.4025
283.544678 23.75
283.749969 24.445311
283.869263 22.192051
284.748047 22.0625
285.055359 219.209
285.11203 17521.0
285.183075 106.522102
285.199646 53.260422
285.220551 24.95274
285.249115 45.46154
285.301239 18.501329
285.337585 48.22876
285.365936 100.598099
285.398346 27.125
285.422882 39.082989
285.453644 93.154411
285.496735 51.13142
285.516449 57.02813
285.531372 38.55592
285.559753 19.01042
285.578003 34.784088
285.606903 22.58333
285.651581 63.829391
285.747009 64.760872
285.792603 72.323288
285.983643 43.60714
286.392212 45.715778
286.442322 20.512501
286.760376 31.0
286.920258 23.237499
287.780151 25.9879
303.12265 753.349426
303.256378 23.625
347.146484 88.028168
434.210297 70.350273
434.638855 28.84004
535.295959 32.98077
687.710083 25.725771
819.444519 49.487801
