>compound Tropisetron
>formula C17H20N2O2 
>ionization [M+H]+
>parentmass 285.158478
#inchi InChI=1S/C17H20N2O2/c1-19-11-6-7-12(19)9-13(8-11)21-17(20)15-10-18-16-5-3-2-4-14(15)16/h2-5,10-13,18H,6-9H2,1H3/t11-,12+,13?
#inchikey ZNRGQMMCGHDTEI
#Ion_Source LC-ESI
#Instrument qTof
#Compound_Source Isolated
#PI Sirenas
#Data_Collector Ed Esquenazi 
#Scan -1
#Precursor_MZ 285.16
#ExactMass 0.0
#Charge 1
#CAS_Number N/A
#Pubmed_ID N/A
#Smiles N/A
#INCHI_AUX N/A
#Library_Class 3
#SpectrumID CCMSLIB00000004601
#IonMode Positive
#UpdateWorkflowName UPDATE-SINGLE-ANNOTATED-BRONZE
#LibraryQualityString Bronze
#TaskID d19310cd93df49b68e9fcbec27720eb5
##Scan# 3
#SpectrumFile Tropisetron.mgf
#LibraryName fda_library.mgf
#MQScore -1
#Organism fda_library
#TIC_Query 0
#RT_Query -1
#MZErrorPPM -1
#SharedPeaks 0
#MassDiff 0
#LibMZ -1
#SpecMZ 285.16
#SpecCharge 0
#internalFilename spec-00000.mgf

>collision 10
101.170479 2.552083
101.523659 24.61458
102.550339 1.625
102.678482 1.785714
103.147957 4.181134
103.774078 15.51786
104.596306 13.00284
105.045113 20.66127
105.070282 119.320999
106.07148 11.85986
107.084831 607.998779
107.109573 2.634375
107.427666 1.630208
107.624802 3.254261
108.043861 2.751563
108.080551 1652.109009
108.128105 19.46377
108.150543 13.475
108.174637 12.79716
108.217506 2.127232
108.23925 10.76563
108.250031 4.870013
108.286278 1.254464
108.30101 6.599114
108.329933 6.394231
108.38765 8.003289
108.441795 9.96875
108.541473 4.595588
108.583336 7.277439
108.590584 1.625625
109.088501 3204.041992
109.149635 17.721861
109.215858 6.725
109.23008 8.106674
109.259163 7.591912
109.294624 11.43862
109.32193 6.971993
109.372231 11.59474
109.3787 5.145011
109.415176 3.515625
109.445786 7.673491
109.47052 2.775
109.491135 10.68389
109.527855 8.251078
109.599846 2.270089
109.662666 2.009615
109.818794 3.730625
110.041992 4.21007
110.622894 3.017578
110.664543 2.066406
111.318863 3.484375
111.627785 3.887576
114.740211 3.695313
115.310997 2.40625
115.497803 6.943965
115.569725 5.421875
115.592377 3.502083
116.005096 9.454222
116.022079 7.405406
116.049232 4283.342773
116.094238 7.185612
116.124443 9.668527
116.150291 2.375
116.168228 3.127604
116.178543 12.18216
116.209541 6.206653
116.224487 4.509084
116.267097 7.078125
116.277214 4.982462
116.310028 37.883011
116.333885 1.333333
116.363258 1.635817
116.378601 11.40244
116.390495 3.78125
116.500702 4.170139
116.541962 2.944711
116.569794 3.273201
116.641541 7.982143
116.665588 1.546875
116.702515 6.933894
116.712563 4.043269
116.829277 6.446129
116.859207 2.145559
117.153061 2.640625
117.385155 6.889323
117.422386 6.735294
117.616318 5.752384
118.064735 478.702606
118.102638 1.403125
118.338165 4.433681
118.470688 6.331801
118.50502 9.761837
118.513458 7.981576
118.601433 3.940104
118.849495 1.875579
121.358147 6.017337
121.408447 3.396875
121.456551 2.655331
121.704948 6.130208
121.992645 7.595486
122.09655 1222.834961
122.131668 20.165899
122.14122 0.75
122.160446 6.033088
122.275284 11.1125
122.291214 2.175625
122.364418 15.38214
122.403419 14.50015
122.50676 2.445023
122.603203 1.699449
122.822701 2.637601
123.285797 4.523011
123.339882 3.37843
123.351685 10.59255
123.376961 34.013351
123.404205 32.29311
123.413727 8.285672
123.4216 24.084209
123.436882 63.170731
123.451401 18.603161
123.469154 60.406059
123.478371 11.63281
123.506905 16.263941
123.51857 133.990799
123.543419 33.343899
123.550293 37.549511
123.56028 13.50521
123.567886 15.61245
123.583275 4.091315
123.591911 112.512703
123.603027 18.54244
123.637955 66.298714
123.646263 9.720745
123.65303 5.694712
123.664124 33.755089
123.67244 8.501078
123.687851 4.672222
123.706375 32.642609
123.713493 5.891633
123.720131 23.76885
123.743294 19.875271
123.765633 6.403935
123.773544 12.01224
123.78788 19.43705
123.798904 13.7498
123.824173 9.270011
123.834877 7.501078
123.847961 19.18248
123.858147 3.317708
123.865753 14.34014
123.903053 17.482479
123.928169 33.404598
123.952431 24.16584
123.961845 8.355263
123.981575 22.36837
124.008949 15.1292
124.032364 11.4024
124.051056 26.701559
124.112358 91957.476562
124.159767 31.650721
124.173248 7.31583
124.218018 13.05889
124.280251 14.09571
124.303848 12.92668
124.327194 5.4375
124.334824 2.153357
124.349953 11.025
124.359039 13.2337
124.393539 9.049052
124.401985 11.33507
124.454788 64.443176
124.479439 61.103279
124.500519 7.349581
124.532913 18.243299
124.545341 22.97436
124.559143 99.283287
124.571915 32.170979
124.600372 55.094749
124.620003 27.422029
124.649345 38.8326
124.659775 34.110378
124.668495 20.998249
124.683548 11.27466
124.697296 55.737591
124.708786 15.25953
124.722404 11.78123
124.730347 14.43445
124.749664 7.905331
124.76223 15.95716
124.769928 14.92308
124.779472 35.44421
124.796471 50.03968
124.812508 5.285672
124.82856 6.16907
124.837967 33.522121
124.850357 7.633311
124.862892 5.513393
124.878944 11.57781
124.893753 23.146749
124.933434 29.400579
124.967522 10.20826
124.991287 7.236666
125.00869 22.670759
125.023331 23.215851
125.040565 16.43359
125.160736 18.55488
125.232956 18.116859
125.25193 8.324194
125.302956 15.1
125.337379 6.801777
125.395477 12.2726
125.404099 2.888889
125.416512 19.578039
125.490967 4.905331
125.586426 8.512544
125.606949 33.034229
125.630699 3.430556
125.713463 15.59741
125.762711 8.137153
125.80542 6.75463
125.864006 5.538793
125.977356 3.691176
125.996742 2.413461
126.070953 3.384084
126.091179 10.54578
126.462318 7.053571
126.522919 6.278433
126.575348 1.653125
126.775414 5.143176
127.22982 3.938802
127.32373 8.417014
127.52124 2.556818
127.693817 9.2
128.146271 11.65167
128.169037 7.836779
130.066147 10.95313
133.630051 3.106534
134.981613 22.610439
140.106735 45.440819
141.276703 1.755208
141.303391 7.278125
141.334457 16.58906
141.35936 2.272978
141.412048 8.790226
141.467072 9.415178
141.50856 2.882401
141.520584 8.778218
141.563889 7.91624
141.919907 6.870578
141.98111 13.42604
142.063568 21.90637
142.090591 12.23499
142.122818 5661.819824
142.173798 3.039063
142.183365 27.894011
142.236588 8.332143
142.2547 10.02316
142.31337 4.307855
142.320862 11.77506
142.358353 8.879945
142.370438 0.78125
142.391159 6.405048
142.407898 6.460483
142.439713 8.671138
142.454758 1.265625
142.4702 6.105536
142.495331 9.044226
142.504471 9.36481
142.532486 3.251946
142.57402 3.043403
142.603088 2.25
142.628616 2.527853
142.699142 9.898201
142.781784 1.388889
143.039642 1.75
143.16449 0.88125
143.224152 21.701679
143.237549 13.30638
143.258026 5.890625
143.267242 29.985149
143.297745 2.533288
143.306793 20.623131
143.31871 4.570652
143.33197 40.98167
143.349304 14.01686
143.360474 7.937672
143.375839 79.273933
143.393158 4.90625
143.405579 23.483641
143.41449 4.191176
143.422607 4.038462
143.43721 23.5518
143.458481 5.240785
143.48172 13.21429
143.50412 19.482491
143.531631 10.00069
143.551865 2.511837
143.564377 3.002083
143.579269 6.497837
143.610245 7.056082
143.639511 9.396243
143.699173 11.17857
143.793915 6.37787
143.8396 3.450446
143.952209 3.583024
143.97377 11.00327
144.021606 19.574711
144.04451 31854.119141
144.094955 60.107441
144.143661 22.140209
144.166031 9.162991
144.20549 14.0113
144.214996 8.683824
144.228653 30.17849
144.242249 10.70094
144.269836 28.867519
144.293823 13.10669
144.31308 15.26163
144.345123 14.01
144.362305 21.67676
144.41095 36.301861
144.43248 9.531866
144.452438 25.313801
144.478317 48.921131
144.496918 20.72522
144.511765 9.016078
144.520218 34.68224
144.538727 9.958912
144.559128 39.74966
144.579926 16.518681
144.611832 20.106899
144.634781 17.06439
144.646011 3.882813
144.663788 10.24883
144.677826 9.568939
144.689362 14.79476
144.712051 30.09837
144.738708 14.94255
144.752747 15.41694
144.785156 18.33427
144.81723 14.55679
144.876648 15.57206
145.010391 9.547656
145.16684 11.04052
145.189697 11.71543
145.240753 8.141984
145.540878 3.184375
145.845459 3.030711
145.992859 3.333333
146.11795 7.405869
147.196991 5.449835
162.057587 76.038879
169.048035 1.752404
178.252914 2.515625
188.634827 1.740057
217.295166 4.570313
266.455078 7.055059
285.158478 242.827194
285.449646 6.757031
286.03772 5.501042
286.673492 0.765625
287.83667 7.557143
292.825867 3.671875
293.569458 8.330019
358.035004 21.125139
403.423065 1.15
479.30722 16.47361
501.857086 8.325625
519.974426 6.485294
538.895996 19.799049
580.658386 3.236213
699.944153 3.261161
714.071167 23.9601
784.05304 3.641633
796.244995 5.015012
855.969727 10.91801
925.018066 8.506853
946.968689 3.768601
1003.851318 2.405048
1109.916138 4.43892
1233.235962 4.166667
1340.590088 2.25
1500.109741 1.134375
1696.946533 2.250446
