>compound Sulindac
>formula C20H17FO3S 
>ionization [M+H]+
>parentmass 357.096
#inchi InChI=1S/C20H17FO3S/c1-12-17(9-13-3-6-15(7-4-13)25(2)24)16-8-5-14(21)10-19(16)18(12)11-20(22)23/h3-10H,11H2,1-2H3,(H,22,23)/b17-9-
#inchikey MLKXDPUZXIRXEP
#Ion_Source LC-ESI
#Instrument qTof
#Compound_Source Isolated
#PI Sirenas
#Data_Collector Ed Esquenazi 
#Scan -1
#Precursor_MZ 357.096
#ExactMass 0.0
#Charge 1
#CAS_Number N/A
#Pubmed_ID N/A
#Smiles N/A
#INCHI_AUX N/A
#Library_Class 3
#SpectrumID CCMSLIB00000006166
#IonMode Positive
#UpdateWorkflowName UPDATE-SINGLE-ANNOTATED-BRONZE
#LibraryQualityString Bronze
#TaskID d19310cd93df49b68e9fcbec27720eb5
##Scan# 3
#SpectrumFile Sulindac.mgf
#LibraryName fda_library.mgf
#MQScore -1
#Organism fda_library
#TIC_Query 0
#RT_Query -1
#MZErrorPPM -1
#SharedPeaks 0
#MassDiff 0
#LibMZ -1
#SpecMZ 357.096
#SpecCharge 0
#internalFilename spec-00000.mgf

>collision 10
107.050186 97.830238
108.572006 3.791667
110.0205 33.006821
115.055206 6.166667
116.062233 25.913651
121.009781 51.117039
123.026451 106.356796
126.669113 17.551331
128.063477 71.905327
133.256027 3.335526
135.027359 277.811188
135.053146 4.010417
135.060211 24.73016
135.100616 2.408333
135.126633 18.308331
135.174469 2.695513
135.996445 20.08013
137.041397 87.081291
138.010056 14.76587
138.335861 7.041667
146.052109 150.226196
147.027084 23.6586
147.058823 141.266403
149.042587 12.01754
152.023636 87.112648
152.077606 2.333333
152.275604 4.963235
152.704636 17.694441
153.070236 15.46094
153.323227 12.60417
159.057816 10.17763
159.708817 9.021258
160.015747 4.083333
160.067612 34.226952
160.197296 19.34041
161.076813 477.711212
161.110931 7.347222
161.145447 8.342593
161.562088 15.21365
163.472137 3.675
165.069244 39.727268
170.017365 26.23428
171.062225 14.3447
172.046234 5.840278
172.070389 21.41176
172.306427 17.938789
172.347519 4.666667
173.076202 1318.927979
173.20018 36.72604
173.28183 17.11846
173.338776 7.280303
173.41861 7.074275
173.472885 8.041667
173.496613 7.852564
173.509521 6.001984
173.568619 4.094697
173.605804 9.463542
173.669891 2.733333
173.729172 4.339286
173.825867 9.34248
173.977249 13.71204
174.073959 7.714285
185.04187 54.178268
185.087875 1.777778
186.084946 83.057983
186.112839 4.355392
195.749756 6.853395
201.066742 25.03347
207.055588 82.680862
209.080322 9.629902
210.086044 33.802471
211.052658 40.518681
213.203552 16.96681
213.222229 13.62681
215.083038 115.901802
215.111237 9.444577
215.416306 6.722222
219.53096 16.861111
219.810104 13.7619
219.924728 4.669445
220.0681 429.470795
220.124802 11.74679
220.176422 2.669872
220.439774 2.666667
221.189392 3.413462
221.303207 2.0
221.427795 7.714285
221.550705 3.852273
221.656219 7.810714
222.081528 87.229019
224.101456 9.357142
225.073288 61.778
225.525482 9.015873
226.074127 173.233307
227.08429 219.063995
227.142731 3.013889
227.882614 13.14583
228.208481 18.8109
229.104065 64.296402
229.155334 9.947369
229.276459 17.057199
229.79953 5.002778
231.065735 9.027778
231.077621 61.0681
231.61232 12.15572
231.643051 10.37037
231.6689 9.075
231.686432 43.816631
231.718964 39.34436
231.752869 28.299999
231.765945 90.870087
231.794693 41.75124
231.820969 47.56591
231.848923 5.011905
231.868668 26.1847
231.893173 23.416071
231.91185 71.68235
231.928864 4.339286
231.946762 10.66667
231.968582 55.54834
231.98671 6.668333
232.070633 47.155231
232.124374 10.40374
232.151001 9.692073
232.203995 27.41869
232.244492 24.777781
232.257034 4.019737
232.49054 12.8648
232.516052 13.25581
232.591171 5.666667
232.623001 13.33333
232.647186 17.71627
232.853317 12.51852
232.936218 26.11842
232.952591 26.421829
232.979568 27.27556
233.076523 30985.080078
233.143677 26.700081
233.221512 32.64439
233.265259 20.026779
233.285187 164.176605
233.328659 103.594803
233.357117 168.035294
233.379791 31.18107
233.404602 23.99008
233.417191 12.215
233.436493 85.923927
233.467789 56.440392
233.497528 94.388618
233.519882 73.029457
233.534042 34.193661
233.554733 110.134003
233.581146 65.640518
233.602432 25.17564
233.635971 97.474411
233.664185 22.6674
233.677902 13.12037
233.702301 21.523809
233.721024 24.860229
233.733658 6.867929
233.802429 38.168091
233.918961 15.17708
234.034119 24.95833
234.157104 42.942699
234.180771 85.66507
234.209793 16.152491
234.234589 27.921499
234.340012 57.31102
234.406555 48.29969
234.445755 18.152781
234.497253 19.08889
234.704483 18.74576
234.718277 14.36134
234.755569 7.033602
234.776886 6.027778
234.821838 17.41667
234.846054 29.73501
234.962784 32.42638
234.99057 20.116671
235.139984 5.034091
235.235977 16.51087
235.301285 24.78009
235.834366 10.66667
235.919037 3.440476
236.060318 81.668663
236.142395 6.041667
236.263779 2.166667
236.287857 13.11204
236.35582 5.483334
236.368073 4.0
236.494614 11.03728
236.891251 6.458333
237.067581 41.15741
237.103989 31.89185
237.540848 5.357143
237.728546 1.666667
239.029022 64.204948
239.539627 11.03125
239.787369 7.6875
241.849655 4.083333
245.075272 80.50573
245.134598 8.115741
245.257126 5.427083
245.422028 8.522727
245.542587 5.673611
245.630371 18.537729
245.657074 9.721154
245.671677 3.640152
245.771591 15.79427
245.79924 11.85417
245.818558 5.84375
245.924576 14.34722
245.967972 9.012097
246.011841 13.90645
246.084137 6054.081055
246.350052 13.03712
246.437424 9.405142
246.508438 10.51389
246.563248 18.837379
246.599991 36.040459
246.639526 69.855766
246.672882 31.06871
246.712616 37.703941
246.732422 4.673077
246.746201 29.545071
246.776138 9.378703
246.803452 55.221409
246.825653 60.519119
246.857391 8.75
246.873001 21.762341
246.89711 35.132599
246.937027 9.964506
246.957565 32.213379
246.983841 11.36149
247.052246 79.220932
247.154068 23.026711
247.19693 26.38225
247.259109 61.622879
247.290115 9.001666
247.330078 47.977489
247.374573 24.360861
247.400558 66.403954
247.468002 48.480541
247.487762 16.336309
247.526276 5.333333
247.718216 54.976582
247.788193 14.36474
248.01825 6.125
248.06076 62.96674
248.099869 18667.830078
248.167969 116.090797
248.193634 49.042881
248.236603 23.828279
248.277603 73.399429
248.315018 32.813438
248.35466 106.266998
248.384018 23.673361
248.42746 17.007351
248.457581 78.244926
248.477264 52.704369
248.517563 31.235291
248.539169 36.458328
248.562225 42.673191
248.582672 11.38889
248.610733 29.348009
248.667892 78.971672
248.688232 39.524429
248.706314 9.0
248.738876 64.911636
248.788895 45.63525
248.85173 11.33712
248.867493 6.589285
248.895142 15.44298
248.910568 18.10725
248.926086 19.4147
248.950592 25.853399
248.986053 12.41667
249.004532 43.73698
249.023972 36.375
249.069397 144.212997
249.220306 9.314103
249.319168 35.66806
249.3349 1.666667
249.411819 9.396825
249.868042 4.009259
250.035797 17.41667
250.058945 6.160088
250.077255 66.53537
250.126465 15.34921
250.522324 4.225
250.800125 12.04167
251.088913 57.14695
251.156525 3.440476
251.272995 6.371212
251.525986 15.7067
251.564651 5.688889
252.034454 43.099522
252.515549 7.481667
253.042847 21.282551
253.167358 4.666667
253.87294 5.510417
254.019836 15.89532
254.053497 50.57217
254.076111 25.60417
254.120331 5.027778
254.892029 8.022223
255.414124 3.668651
257.073456 24.691669
259.088531 45.522991
260.920532 12.17385
261.071808 22.22917
261.1008 51.987751
262.114532 332.902496
263.031494 7.019608
263.477264 2.083333
264.03949 68.074699
264.08902 26.06905
264.228699 10.25521
264.412445 5.010417
264.830933 10.81636
264.90802 10.02083
265.047333 885.679993
265.140228 10.0375
265.177979 19.76552
265.253662 11.09399
265.593201 2.361111
265.776001 11.03716
265.833496 18.82692
266.320587 14.78513
267.062164 36.045399
267.877655 10.92287
268.090454 9.897988
269.073669 24.611111
269.343262 17.14706
271.696075 7.5625
275.013458 8.240196
276.043396 34.333778
277.038055 15.49745
277.053741 4.001812
277.185211 3.066667
277.305176 6.761905
277.445099 10.84028
278.073639 75.398552
278.115082 2.816667
278.694916 6.070402
278.979553 8.523648
279.014191 36.357349
279.0625 386.883606
279.246918 7.001437
279.311401 15.90944
279.85144 11.50417
280.070648 582.195923
280.233948 15.65351
280.272369 4.761905
280.375885 5.671875
280.432373 26.201719
281.040863 102.1651
281.079437 506.090912
281.250336 2.722222
281.288818 12.59179
281.401978 14.06349
281.519043 11.92004
281.641357 7.015
281.693909 3.714286
281.769928 6.927469
282.048309 228.705597
282.102783 3.336111
282.203339 16.0
282.335815 14.07562
282.496307 10.83965
282.574158 8.375
283.056641 260.437408
283.161377 6.095238
283.518585 5.358974
283.607452 40.82645
284.339264 6.027778
292.085754 63.009258
293.071899 55.851589
293.092346 220.7798
293.27417 18.4902
293.696472 18.61256
293.729858 4.185606
294.006317 28.947281
294.560303 6.061274
295.096222 1092.036987
295.18692 2.367424
295.235657 16.617809
295.307312 4.734848
295.3909 4.736111
295.466309 27.14698
295.506042 7.113095
295.531525 1.875
295.618256 7.057692
295.905365 6.430555
296.055298 69.117409
296.881683 10.83
297.075012 327.551605
297.13678 21.221621
297.343445 4.009259
297.991577 10.59375
298.268005 14.25
298.298004 4.382936
298.479919 8.307693
298.586273 17.461361
299.33255 10.41667
300.060822 67.415253
307.141022 3.703704
309.033966 6.840517
313.102539 43.570671
322.091675 33.03788
323.366394 9.066667
324.060547 22.388161
325.071777 67.870644
325.471802 10.33991
335.457825 3.857143
340.088806 206.669601
340.657623 3.080128
341.481171 11.77885
342.56778 10.5307
422.702362 3.002451
620.355652 4.673611
848.067505 1.666667
