>compound Bicalutamide
>formula C18H14F4N2O4S 
>ionization [M+H]+
>parentmass 431.066772
#inchi InChI=1S/C18H14F4N2O4S/c1-17(26,10-29(27,28)14-6-3-12(19)4-7-14)16(25)24-13-5-2-11(9-23)15(8-13)18(20,21)22/h2-8,26H,10H2,1H3,(H,24,25)
#inchikey LKJPYSCBVHEWIU
#Ion_Source LC-ESI
#Instrument qTof
#Compound_Source Isolated
#PI Sirenas
#Data_Collector Ed Esquenazi 
#Scan -1
#Precursor_MZ 431.07
#ExactMass 0.0
#Charge 1
#CAS_Number N/A
#Pubmed_ID N/A
#Smiles N/A
#INCHI_AUX N/A
#Library_Class 3
#SpectrumID CCMSLIB00000005726
#IonMode Positive
#UpdateWorkflowName UPDATE-SINGLE-ANNOTATED-BRONZE
#LibraryQualityString Bronze
#TaskID d19310cd93df49b68e9fcbec27720eb5
##Scan# 1
#SpectrumFile Bicalutamide.mgf
#LibraryName fda_library.mgf
#MQScore -1
#Organism fda_library
#TIC_Query 0
#RT_Query -1
#MZErrorPPM -1
#SharedPeaks 0
#MassDiff 0
#LibMZ -1
#SpecMZ 431.07
#SpecCharge 0
#internalFilename spec-00000.mgf

>collision 10
120.438919 12.08013
120.465271 3.075
120.618279 25.74856
120.994804 754.565674
121.073547 7.98077
121.137825 18.99399
121.166275 13.7619
121.176498 13.22377
121.246788 3.094697
121.411446 5.041667
123.310539 5.541667
127.002602 46.001541
135.057236 30.473909
139.052704 49.42028
142.996933 121.600403
157.609665 3.0
158.589493 4.763889
158.991394 748.517273
159.047012 4.701389
159.260925 12.675
159.436172 9.35874
159.519638 12.73035
160.293854 7.160257
160.337952 13.00076
161.005051 50.39975
161.609192 2.761364
167.038208 164.869293
167.64035 2.520833
184.780884 4.022059
185.927917 15.075
185.984009 4.340909
186.002991 11.9616
186.031448 12.73387
186.0457 4.8
186.1073 21.66667
186.145355 4.041667
186.209396 11.39881
186.284958 31.722589
186.345444 2.336539
186.401718 18.75
186.610794 13.3947
186.734375 12.35648
187.047165 9355.753906
187.105209 53.042992
187.122833 20.94286
187.143478 69.767021
187.167435 13.17754
187.180374 21.336109
187.19632 19.09358
187.206573 59.72707
187.23291 41.966949
187.243011 21.76552
187.258179 6.760417
187.268875 9.229167
187.295776 25.345501
187.310989 37.52861
187.328033 16.01754
187.353287 39.539009
187.371307 3.115741
187.398605 11.97417
187.420685 11.14881
187.437943 26.609261
187.466904 15.12297
187.48082 33.051922
187.500565 5.763889
187.514832 7.078432
187.548309 9.805555
187.564148 16.682541
187.616806 13.34722
187.657776 8.667857
187.824844 31.401899
188.049515 48.948299
188.406738 10.125
188.768829 7.125
189.190674 12.32051
189.219391 5.675
189.707886 7.576149
191.095123 10.37677
192.144943 13.33586
193.163803 6.333333
193.545959 6.012931
197.993866 5.823718
215.407669 5.4
215.626312 9.352941
215.659515 2.208333
215.707123 13.95833
215.759384 22.09918
215.797897 22.13205
215.863052 24.46368
215.933594 30.807211
215.975021 27.257759
216.076202 4.351191
216.097702 30.10556
216.138184 7.824242
216.163177 11.73253
216.188873 5.939394
216.265289 17.51306
216.361282 15.66667
216.463943 13.0406
216.613297 19.063129
216.705963 13.88573
216.828491 4.120098
216.858932 11.16263
216.895065 4.408333
216.983231 15.22715
217.002304 105.223396
217.032516 13403.349609
217.095444 121.252998
217.135193 21.6598
217.147812 10.54688
217.176285 33.115742
217.199921 22.089081
217.220642 33.344551
217.236374 36.517269
217.254501 18.277781
217.276749 79.005203
217.290039 15.73409
217.324783 24.384609
217.344055 29.71681
217.372269 34.864479
217.40303 54.211281
217.434738 19.592421
217.456207 14.15847
217.489807 27.10833
217.545654 8.239899
217.56163 9.021258
217.582169 8.03592
217.612946 16.35041
217.661316 25.09074
217.67572 19.388189
217.769028 52.566139
217.8414 26.44644
217.920975 7.001016
218.103668 44.667751
218.738297 3.011905
218.871109 3.816667
219.474548 20.007351
219.655884 25.786989
219.912979 5.041667
220.232956 4.0
220.89946 9.797101
222.542618 13.92754
227.018967 33.881222
227.667084 12.72222
237.062729 71.213676
413.059265 69.357613
413.596252 14.29167
425.069427 12.62976
427.364227 26.450199
428.198792 9.69697
428.33197 19.00375
428.385315 32.268749
428.407196 23.00049
428.445007 16.066271
428.495087 25.342131
428.567139 18.610291
428.692749 12.42672
428.742767 13.01389
428.818756 35.81477
428.985138 40.445641
429.1492 5.357143
429.221344 12.69167
429.301697 16.9
429.547424 16.963051
430.570129 7.03592
430.749756 18.7787
431.066772 6346.623047
431.161865 63.290852
431.257141 57.955742
431.301666 96.408096
431.331329 39.36813
431.368347 25.623659
431.40332 24.648279
431.436798 10.42391
431.468781 32.806789
431.498871 24.667561
431.529938 46.984531
431.564117 53.39373
431.588806 17.2041
431.631531 21.34849
431.684875 37.30093
431.728271 24.66119
431.778778 56.210369
431.841614 13.45058
431.928314 19.33527
431.989746 39.20467
432.448242 18.744011
432.597107 19.25778
434.149231 12.45
434.95813 6.668651
439.567871 7.017857
446.078522 13.34921
495.468231 14.03157
