>compound DorzolamideHCl
>formula C10H16N2O4S3 
>ionization [M+H]+
>parentmass 325.035
#inchi InChI=1S/C10H16N2O4S3/c1-3-12-8-4-6(2)18(13,14)10-7(8)5-9(17-10)19(11,15)16/h5-6,8,12H,3-4H2,1-2H3,(H2,11,15,16)/t6-,8-/m0/s1
#inchikey IAVUPMFITXYVAF
#Ion_Source LC-ESI
#Instrument qTof
#Compound_Source Isolated
#PI Sirenas
#Data_Collector Ed Esquenazi 
#Scan -1
#Precursor_MZ 325.035
#ExactMass 0.0
#Charge 1
#CAS_Number N/A
#Pubmed_ID N/A
#Smiles N/A
#INCHI_AUX N/A
#Library_Class 3
#SpectrumID CCMSLIB00000004223
#IonMode Positive
#UpdateWorkflowName UPDATE-SINGLE-ANNOTATED-BRONZE
#LibraryQualityString Bronze
#TaskID d19310cd93df49b68e9fcbec27720eb5
##Scan# 3
#SpectrumFile DorzolamideHCl.mgf
#LibraryName fda_library.mgf
#MQScore -1
#Organism fda_library
#TIC_Query 0
#RT_Query -1
#MZErrorPPM -1
#SharedPeaks 0
#MassDiff 0
#LibMZ -1
#SpecMZ 325.035
#SpecCharge 0
#internalFilename spec-00000.mgf

>collision 10
101.520042 2.666667
102.046265 1288.052979
102.074623 18.52632
102.088684 3.505682
102.965012 136.561905
103.252853 33.515148
103.293343 22.725
105.125107 8.875
106.066681 51.032612
107.072571 54.555199
108.003799 45.62019
108.0793 102.9758
108.47403 16.550301
109.008583 151.304504
109.884277 7.091912
109.979797 42.241508
110.005051 45.66272
110.017151 51.960041
110.989723 102.954102
111.0149 28.46314
111.027771 7.580357
111.461655 6.5125
111.502197 11.48491
112.064339 26.460461
113.95636 85.010933
114.967003 884.120117
115.078827 11.0296
116.152466 9.001894
116.980942 182.019501
118.039436 37.065441
118.063362 239.191696
119.047752 115.962601
119.072769 100.018204
119.214973 2.75
120.052788 59.112801
120.348679 14.16667
121.010666 919.672974
121.214844 8.1
121.664116 15.02381
122.36422 40.618382
122.544434 12.0504
122.94902 4.004807
122.960922 5.1
123.026215 6535.346191
123.072609 30.50305
123.088043 13.05364
123.129562 34.33675
123.215958 34.860321
123.275597 12.45066
123.315948 10.34615
123.393143 6.011364
123.401146 20.380211
123.44339 13.5
123.505409 30.091721
123.520706 12.53472
123.636772 13.98818
123.672256 11.77885
123.980171 45.07835
124.065666 9.669642
124.337761 24.506941
124.396095 10.86422
125.055557 24.683821
125.508118 3.041667
125.533577 6.5
126.195122 5.504807
126.305099 34.711208
126.402336 8.102273
126.562752 6.015625
126.966301 1746.094971
127.142868 41.62141
127.154732 16.76078
127.236641 24.09091
127.350632 10.00216
127.362411 13.11773
127.625595 8.613426
127.973701 1105.714966
128.008179 52.932362
128.015671 37.79845
128.176514 4.6875
128.223907 7.347222
128.341888 5.0
129.6418 16.699289
129.954987 58.503288
130.960022 83.612503
131.993652 87.92173
132.326523 13.44485
133.012726 332.077301
133.275879 38.264751
133.487762 22.4
133.536575 20.50202
133.63678 10.5125
133.644455 18.125
133.700333 20.360121
133.846344 28.751499
134.018295 8521.049805
134.059784 28.50128
134.080185 224.864105
134.10405 4.543269
134.116455 126.337097
134.124084 6.160714
134.156433 13.0194
134.202637 56.183681
134.220963 46.005459
134.246231 46.24242
134.259277 105.194702
134.274567 49.34222
134.295181 28.82692
134.309601 111.647598
134.322464 50.627258
134.345856 11.84073
134.360168 50.14077
134.405457 108.397499
134.432083 61.052101
134.469467 23.75762
134.486893 103.923698
134.503998 5.625
134.521011 11.34028
134.562256 22.225
134.603363 20.796049
134.640488 21.13224
134.656555 9.033089
134.668823 23.746929
134.712463 28.060049
134.783478 28.92857
134.862885 33.13636
134.967575 23.51103
135.02623 54191.621094
135.142639 43.433929
135.169586 16.503679
135.198181 77.230026
135.246582 22.51613
135.273468 26.7875
135.287521 62.041321
135.328232 76.406853
135.353287 45.357079
135.373032 30.59091
135.398254 56.59301
135.416565 4.5
135.425385 58.229519
135.464005 119.730301
135.515793 26.828951
135.533356 30.164471
135.559448 28.009371
135.571564 93.251907
135.60289 18.993719
135.639908 37.166672
135.66452 15.6
135.73671 52.963009
135.744675 18.48077
135.764938 64.612991
135.822632 27.66766
136.082932 73.630302
136.135208 33.039242
136.168228 40.280682
136.198883 12.2025
136.20726 24.001101
136.231567 33.014709
136.247894 21.328409
136.312729 19.816891
136.359116 15.26087
136.395859 25.62467
136.472427 16.0
136.488281 50.04895
136.544037 39.521278
136.552475 17.19565
136.62291 4.1125
136.639435 26.661819
136.723297 41.101379
136.837692 32.5625
136.947403 7.898026
136.987747 25.51148
137.006821 127.620003
137.037567 70.982239
137.151505 8.45
137.558441 8.0625
137.922867 82.644722
137.958298 19.96314
138.025269 48.002449
138.437103 14.625
138.631073 6.3125
138.686905 12.50298
138.966797 1015.077026
139.017761 26.637501
139.046036 58.524891
139.171631 23.00123
139.307587 6.020833
139.948883 90.760063
140.021744 23.746929
140.978943 29.851351
142.394165 3.0
142.80571 23.0625
143.969101 38.51717
143.991364 68.035873
144.23526 12.63682
144.277039 3.5
144.808212 26.07337
144.97934 86.073982
146.959106 55.18182
148.260681 9.669642
149.517929 13.98818
150.015579 97.934471
150.036819 219.380997
150.192139 69.466164
150.236801 11.0625
150.263214 6.005682
150.271729 5.083333
150.292984 35.505211
150.303665 35.691471
150.323868 14.55114
150.36113 7.002315
150.378387 11.0504
150.411667 16.8288
150.440857 9.766447
150.476486 11.0875
150.604584 10.01607
150.625931 7.125
151.020721 13743.870117
151.073807 13.12132
151.091446 141.973495
151.113449 56.520569
151.127396 119.348503
151.148788 22.660061
151.170959 22.62331
151.20874 133.465897
151.23407 24.341141
151.262894 4.6875
151.298111 28.360121
151.313904 65.328537
151.33429 22.89205
151.355957 19.19643
151.383545 61.73447
151.414276 116.692299
151.448044 25.785721
151.476822 14.68445
151.489624 4.083333
151.516006 2.666667
151.536224 14.03247
151.558197 10.74039
151.570999 7.013889
151.748795 4.9375
151.763794 11.22917
152.019226 70.595108
152.026871 338.742615
152.050507 319.650787
152.172623 22.86607
152.271088 20.023809
152.578629 6.890625
152.708313 25.827209
152.760315 5.225
152.777344 10.3125
152.858612 11.02632
152.914536 11.01607
152.946365 69.724922
152.984085 621.750671
153.034515 182.299194
153.086655 6.582237
153.121689 16.7875
153.18251 33.086811
153.310303 10.875
153.888214 30.02083
153.990784 376.122101
154.091461 5.1
154.276962 13.52083
154.309341 7.6875
154.472961 5.9
154.627457 3.580357
154.961487 1897.953979
154.984268 1191.474976
155.029755 15.02941
155.066635 27.155149
155.094894 8.360119
155.116394 9.575
155.142395 26.125
155.154099 22.971149
155.180923 8.051136
155.202164 22.92614
155.229111 67.639091
155.246384 47.49123
155.285431 6.104167
155.320099 14.77841
155.367004 26.023809
155.389496 12.90179
155.513565 8.704166
155.533875 32.670139
155.602325 29.68976
155.639481 20.28533
155.801682 11.03125
155.969604 3815.589111
156.025146 28.8375
156.046921 25.586889
156.138962 22.612499
156.172211 15.89286
156.188416 14.52083
156.218628 15.09375
156.338501 22.32008
156.429184 15.7849
156.489059 7.180147
157.425842 17.2689
157.531601 16.80179
158.589218 14.23529
159.554138 6.05
165.022217 48.860119
171.954865 53.063549
172.077255 8.0
178.934967 23.54018
179.073669 62.510311
180.997635 19.69231
181.986145 64.116219
182.014633 9.075
182.992233 233.626404
183.034531 6.013889
183.072189 3.5
190.839523 16.648809
190.993744 29.542231
197.739487 7.140625
198.986908 507.463593
199.203979 53.06818
200.321136 18.00403
200.547699 5.502976
201.006668 8.083333
201.953949 20.21607
202.19162 7.0
202.731964 8.0
202.928055 2328.293945
202.99379 15.57122
203.038696 11.02083
203.089539 16.699289
203.132599 12.54656
203.196045 18.125
203.28656 40.778412
203.301208 8.502155
203.334015 7.960227
203.38559 16.80625
203.455017 10.64286
203.660995 5.5
203.695465 42.625
203.77272 9.033334
203.862122 9.535714
213.825882 7.074405
213.99086 50.703701
214.141403 14.51815
214.848679 5.889423
215.007202 1217.102051
215.158234 14.6875
215.181259 9.846154
215.286819 8.725
215.526199 14.44676
215.764801 21.725
216.200745 61.125
216.377075 23.133329
217.637909 23.35417
217.791687 6.05
217.987808 13.95924
218.058746 9.011364
218.199341 26.18042
218.254089 25.632681
218.449371 5.160714
218.619064 12.09879
218.888657 18.71607
218.917664 24.39583
218.94693 6986.728027
219.005936 28.68445
219.029877 2.6125
219.082245 10.03846
219.107986 5.104167
219.13147 35.032261
219.159485 9.6225
219.201859 112.677498
219.238235 32.026138
219.272797 17.5625
219.284683 8.121324
219.319183 2.53125
219.347748 42.04327
219.38266 25.06076
219.412811 22.33456
219.429855 36.595112
219.453491 7.160714
219.490784 34.929169
219.52063 11.48125
219.581009 13.8125
219.611511 44.8064
219.643936 41.908989
219.679962 20.660721
219.735321 32.53849
219.777939 13.62981
220.053467 39.785332
220.257843 11.02632
220.288803 8.504167
220.366486 8.360119
222.891083 5.0
223.325577 12.78409
228.490982 22.160721
234.584625 21.153851
234.657516 15.59191
234.780502 27.308649
235.950134 837.148682
236.15329 34.50066
236.172516 15.44485
236.201035 7.102273
236.297455 15.44055
236.436356 15.64464
236.51236 48.768749
237.931183 33.019291
300.237305 6.0
380.50119 16.075001
1375.437866 14.7875
