>compound Methocarbamol
>formula C11H15NO5 
>ionization [M+H]+
>parentmass 242.102
#inchi InChI=1S/C11H15NO5/c1-15-9-4-2-3-5-10(9)16-6-8(13)7-17-11(12)14/h2-5,8,13H,6-7H2,1H3,(H2,12,14)
#inchikey GNXFOGHNGIVQEH
#Ion_Source LC-ESI
#Instrument qTof
#Compound_Source Isolated
#PI Sirenas
#Data_Collector Ed Esquenazi 
#Scan -1
#Precursor_MZ 242.102
#ExactMass 0.0
#Charge 1
#CAS_Number N/A
#Pubmed_ID N/A
#Smiles N/A
#INCHI_AUX N/A
#Library_Class 3
#SpectrumID CCMSLIB00000005477
#IonMode Positive
#UpdateWorkflowName UPDATE-SINGLE-ANNOTATED-BRONZE
#LibraryQualityString Bronze
#TaskID d19310cd93df49b68e9fcbec27720eb5
##Scan# 2
#SpectrumFile Methocarbamol.mgf
#LibraryName fda_library.mgf
#MQScore -1
#Organism fda_library
#TIC_Query 0
#RT_Query -1
#MZErrorPPM -1
#SharedPeaks 0
#MassDiff 0
#LibMZ -1
#SpecMZ 242.102
#SpecCharge 0
#internalFilename spec-00000.mgf

>collision 10
101.022812 31.34627
102.680092 14.67816
103.053223 1664.376953
103.09623 21.47403
103.121948 10.74405
103.17775 19.478161
103.196693 15.68174
103.229095 25.207121
103.263474 7.481667
103.305 2.25
103.398071 10.54688
103.516426 6.720238
104.467995 2.761364
104.763474 8.333333
104.855484 21.85714
105.069839 2324.212891
105.105423 4.00463
105.114052 18.4
105.130455 3.666667
105.144722 5.678764
105.191101 3.678571
105.290794 8.68889
105.357628 8.280303
105.387436 11.38462
105.587532 6.840517
105.610992 11.00278
105.66256 5.375
106.817284 21.36886
106.977692 28.56213
107.049324 839.042419
107.084 54.05357
107.094269 3.380953
107.195091 2.666667
107.214272 3.266667
107.246925 1.875
107.350105 14.42857
109.028198 108.692596
109.063324 225.048096
109.161133 19.6
109.244484 5.75
109.396469 2.341667
109.456696 19.934999
109.625572 2.333333
109.702217 20.341669
110.015686 12.51087
110.034813 1194.394043
110.079208 7.341667
110.136383 9.122475
110.201836 10.10965
110.245667 7.0
110.259895 4.094697
110.322388 3.002778
110.343178 3.148809
110.446663 10.01389
110.457634 7.408951
110.64418 7.700269
110.766335 10.27222
110.833649 4.720238
111.154587 6.630952
113.780212 4.09375
115.049164 15.7601
115.055939 21.455879
115.358513 5.020833
116.434532 15.11484
117.071327 172.220901
117.125648 2.00463
117.307037 12.44444
117.331299 6.510417
117.378044 8.727273
117.397552 5.703947
117.438362 4.336538
117.487785 8.714286
117.508926 14.79704
117.528877 19.023149
117.540192 13.74516
117.592979 10.67465
117.62928 30.726139
117.638252 11.69667
117.673599 14.24242
117.702408 9.690891
117.906303 8.0
117.918221 9.703704
118.019867 5.906746
118.049606 13471.480469
118.098625 8.041667
118.112801 132.345795
118.152542 19.004629
118.168991 8.666667
118.179512 41.371029
118.207916 40.795429
118.217903 10.63377
118.232857 36.765659
118.243271 18.734091
118.256531 29.12138
118.269279 23.798321
118.29554 34.010231
118.325989 13.80659
118.336792 25.830299
118.350166 33.926281
118.358414 28.43709
118.373978 7.111111
118.385941 18.79594
118.405289 8.30242
118.416824 17.6859
118.425415 25.724871
118.438965 63.02356
118.461723 18.401751
118.482521 23.020269
118.488762 14.39254
118.504623 23.503019
118.526039 44.400101
118.574562 33.86974
118.596718 10.70833
118.661476 21.63158
118.681473 16.90909
118.697136 10.00102
118.735481 17.684521
118.810684 24.68432
118.974022 15.43219
119.092705 11.89636
119.384605 7.779321
119.456383 5.686403
119.597679 29.69091
119.722801 6.189394
119.823822 11.76961
119.901665 19.73485
120.056793 711.02948
120.171051 12.70249
120.35257 2.444444
120.420296 11.53846
120.466118 3.003788
120.477707 7.656609
120.510826 8.856884
120.533157 16.81636
120.870392 9.972826
120.966835 8.727273
121.02726 371.351105
121.063881 1869.855957
121.109177 13.78367
121.12603 6.747549
121.171387 16.432541
121.19178 2.14881
121.234818 15.68134
121.269295 7.757883
121.317139 26.42029
121.345932 7.455883
121.43409 11.33415
121.445778 15.26059
121.514824 14.79487
121.587479 5.357143
121.652878 14.58333
121.866005 15.40167
121.927925 9.974359
122.036064 2029.302002
122.08358 19.96212
122.103767 36.2439
122.130569 39.972542
122.144943 19.66667
122.190292 3.458333
122.209717 13.06888
122.24823 21.065599
122.274498 9.948333
122.294479 8.635753
122.315956 42.64344
122.352257 16.53846
122.402306 11.71902
122.446831 11.12731
122.475716 12.74242
122.494484 9.122549
122.563789 7.724359
122.721756 21.10375
122.775406 9.777778
123.044113 1895.23999
123.07888 104.479897
123.09201 7.078432
123.149796 11.71667
123.203964 10.34099
123.331436 8.213384
123.390884 1.875
123.97747 6.0
124.197166 3.1875
124.431091 13.33446
124.4505 11.33412
124.473785 13.91325
124.579735 17.629629
124.702888 16.301941
124.835007 17.00062
125.017769 10.96014
125.037201 22.66724
125.059082 5372.625977
125.091438 19.01754
125.106964 50.021271
125.17347 19.493891
125.193886 13.23184
125.220673 7.354167
125.239235 6.510965
125.247368 2.333333
125.30188 13.72222
125.347992 9.916667
125.360298 4.336111
125.395355 7.010714
125.401573 12.95089
125.422455 19.009609
125.434319 11.66667
125.465492 7.029762
125.481361 8.480073
125.528595 7.668651
125.560463 7.416667
125.65667 14.53289
125.664299 7.736842
125.879585 28.65766
126.189552 12.92593
126.535469 3.335526
127.053452 21.51042
127.306694 6.779762
127.751488 3.367424
129.732742 12.21338
130.60228 10.50347
130.652634 18.132481
131.048035 631.568176
131.095367 6.57209
131.251129 9.03125
131.328354 10.27222
131.701828 3.333333
132.056503 375.576111
132.757996 9.000817
134.030106 60.57304
134.313782 11.11204
134.38916 6.447222
134.404968 5.306818
134.428284 5.640152
134.493256 6.166667
134.604233 9.455882
134.773804 8.360043
134.878967 12.08681
135.045975 177.223694
135.080093 3668.35498
135.12944 21.377661
135.161789 5.068182
135.197342 8.519231
135.229904 16.444441
135.248764 5.208333
135.304443 12.97663
135.343857 10.07181
135.372192 5.801667
135.503494 20.001261
135.614975 27.012819
135.659744 2.35
136.085983 31.080549
136.097672 20.11574
136.220703 3.802778
136.27594 2.816667
136.462585 12.75543
136.829208 7.455883
137.058777 1447.031982
137.110138 17.0
137.281738 6.306159
137.301666 15.02083
137.40361 5.160714
137.42807 8.523648
137.591309 24.09481
144.327377 6.371913
145.063553 754.89209
145.521118 8.698232
146.53833 12.51724
147.041718 112.963203
147.09053 5.0
147.237335 4.185606
147.512039 5.157052
147.563461 8.024224
147.89856 5.041667
148.050842 1000.241028
148.104889 4.363636
148.121811 2.367424
148.138763 4.44079
148.176926 17.884661
148.367767 11.20427
148.416245 4.208333
148.503128 6.482143
148.786713 4.347222
150.295639 12.13611
150.34874 9.667735
150.391632 5.939394
151.002106 10.88889
151.074829 1930.689941
151.121872 10.86786
151.138931 4.002778
151.181641 9.016305
151.205276 3.833333
151.217728 16.85368
151.233047 9.684211
151.290192 7.190217
151.310059 11.41565
151.448669 10.97984
151.489426 24.096769
151.506973 13.35874
151.520065 3.375
151.541367 30.70752
151.610107 10.3649
151.65065 8.291667
151.673859 20.42424
151.974091 5.001544
153.274933 3.125
153.384415 28.67837
161.061951 24.075001
162.176239 12.89286
162.809433 13.4697
162.929352 8.213384
163.035278 2.333333
163.044861 20.452009
163.074356 3933.172119
163.127686 29.6
163.144867 9.226851
163.16922 9.667636
163.210037 7.852564
163.292877 26.41094
163.344238 26.00948
163.379028 15.06136
163.400833 13.21333
163.422623 43.334091
163.459091 25.13225
163.47197 22.04167
163.493729 11.35556
163.541382 13.19853
163.55162 4.71627
163.580002 6.333333
163.607758 10.89799
163.636749 13.125
163.82196 15.55648
163.930252 7.763889
163.983398 46.68013
164.101822 30.324591
165.195206 3.0
165.916 2.367424
167.069321 31.56522
181.082626 27.11867
199.097672 50.00671
199.136658 3.0
757.813965 7.068182
917.522949 13.00735
1049.292114 3.926282
1511.394653 16.433331
