>compound Nizatidine
>formula C12H21N5O2S2 
>ionization [M+H]+
>parentmass 332.122314
#inchi InChI=1S/C12H21N5O2S2/c1-13-11(6-17(18)19)14-4-5-20-8-10-9-21-12(15-10)7-16(2)3/h6,9,13-14H,4-5,7-8H2,1-3H3/b11-6+
#inchikey SGXXNSQHWDMGGP
#Ion_Source LC-ESI
#Instrument qTof
#Compound_Source Isolated
#PI Sirenas
#Data_Collector Ed Esquenazi 
#Scan -1
#Precursor_MZ 332.122
#ExactMass 0.0
#Charge 1
#CAS_Number N/A
#Pubmed_ID N/A
#Smiles N/A
#INCHI_AUX N/A
#Library_Class 3
#SpectrumID CCMSLIB00000006362
#IonMode Positive
#UpdateWorkflowName UPDATE-SINGLE-ANNOTATED-BRONZE
#LibraryQualityString Bronze
#TaskID d19310cd93df49b68e9fcbec27720eb5
##Scan# 1
#SpectrumFile Nizatidine.mgf
#LibraryName fda_library.mgf
#MQScore -1
#Organism fda_library
#TIC_Query 0
#RT_Query -1
#MZErrorPPM -1
#SharedPeaks 0
#MassDiff 0
#LibMZ -1
#SpecMZ 332.122
#SpecCharge 0
#internalFilename spec-00000.mgf

>collision 10
100.041115 21.4881
100.063042 16.112181
100.099358 3000.253906
100.14109 40.513371
100.239021 20.75
100.339539 8.560185
100.363991 4.166667
101.067741 18.0
102.035889 118.455498
110.013763 23.0151
110.207085 4.297619
111.013725 507.843414
111.090691 73.041656
113.028755 159.776993
113.073021 46.224998
113.106026 78.581871
113.165955 24.199499
115.086273 143.420303
116.09433 82.678368
116.177505 7.721154
116.215187 6.00463
116.241577 6.625
117.048332 21.493589
118.505203 24.73171
123.089561 40.259258
125.027168 64.179939
126.00251 39.08886
130.343521 14.77778
130.400894 21.412251
130.55159 11.35417
131.063522 5705.926758
131.112869 27.87245
131.12384 11.39167
131.189865 32.45565
131.208847 7.686403
131.216217 11.85227
131.232697 12.85688
131.278702 10.19022
131.287994 11.36232
131.330872 19.88587
131.357315 15.26042
131.427002 13.125
131.555496 16.354839
131.571304 10.10526
132.0867 18.30575
132.167175 20.593929
133.243011 12.88021
134.819214 10.08333
138.036057 78.007423
139.031601 89.751137
141.047531 59.760052
142.040863 103.886398
142.844376 11.53846
142.986526 185.395096
145.001633 17.02696
146.464096 10.42188
147.058655 528.485229
148.085602 48.20187
148.695038 10.07849
153.044464 70.506706
153.335007 12.70395
153.706894 17.039221
153.993484 14.9481
154.055496 1593.801025
154.145737 16.15
154.219543 15.40833
154.248734 63.45129
154.269669 5.075
154.28331 17.74729
154.317902 10.66667
154.338806 12.00119
154.354431 10.04167
154.390671 14.07756
154.407974 13.12354
154.416672 10.90705
154.482925 18.10714
154.537689 10.33333
154.645874 18.34524
154.843185 10.22685
154.862213 17.779619
155.06366 17786.330078
155.115967 93.979462
155.133682 91.880127
155.14856 39.981369
155.168472 44.673611
155.190643 20.156481
155.201172 5.347222
155.215591 31.744499
155.224228 8.259259
155.255676 33.77523
155.265839 5.066667
155.277786 45.334259
155.296722 16.226851
155.306473 25.55769
155.317001 38.263931
155.335251 21.729799
155.364517 40.47361
155.382858 29.23864
155.41301 47.299519
155.440918 9.520833
155.461212 19.294941
155.481384 14.61404
155.496002 20.262251
155.523697 38.47543
155.533386 14.2963
155.543808 19.026711
155.569427 41.396488
155.591583 54.57616
155.660385 25.63397
155.777512 29.52713
155.99086 18.5977
156.159378 14.83114
156.293945 21.768721
156.342041 15.90542
156.399292 17.16379
156.999405 8.242816
157.806961 2.333333
158.034851 45.739861
158.199173 12.89043
158.783066 13.5
159.014526 29.15686
162.931335 29.293329
164.824234 11.48761
167.028931 30.48572
170.008011 32.940788
171.001495 53.4468
171.022186 26.10417
171.058273 39.50811
171.212692 11.01389
171.586258 13.25494
172.024612 81.466507
173.076355 40.083328
186.00351 330.490112
186.030396 39.970242
186.071228 15.62972
186.640335 18.690069
187.035645 2081.854004
187.139313 24.03141
187.302246 14.11204
187.37233 25.460251
187.611008 11.9616
187.943558 4.449074
188.737289 14.72464
192.778107 11.3668
194.885025 10.68314
195.396606 19.777781
195.631912 12.46667
199.035812 336.664215
201.052444 51.15966
201.622772 10.51042
203.029587 52.08276
206.470184 14.73016
209.017914 10.96909
210.103561 51.813171
212.043823 112.137299
212.16246 11.44298
213.011612 121.8974
213.899033 8.666667
213.985489 20.482
214.055054 65.372253
214.234894 8.668859
215.067184 8757.151367
215.139603 41.9767
215.151993 20.840191
215.203293 24.06179
215.223953 4.408333
215.278961 12.89015
215.290314 13.0346
215.310242 17.40653
215.331268 18.379311
215.369217 40.578629
215.387299 18.020269
215.401627 27.569441
215.430237 10.52381
215.443481 12.78392
215.458801 11.89855
215.47879 15.69048
215.530289 11.76136
215.551239 32.574909
215.574295 25.42708
215.608704 12.78947
215.720245 17.116381
215.788269 11.03261
215.852173 9.666667
215.921707 28.79431
216.297318 19.418791
216.686096 12.44048
216.855591 16.72024
217.609253 10.5307
218.847412 8.109649
219.067276 30.47007
220.957397 11.66667
226.044373 55.14912
227.060928 43.209518
228.061874 36.666821
230.073608 11.89352
230.557953 3.041667
230.733429 24.35483
230.787064 46.408871
230.802353 14.71902
230.825958 22.621531
230.846161 16.70455
230.936691 23.855709
230.97049 24.305559
231.032944 25.300711
231.085403 64.585587
231.457825 4.00463
231.67012 10.01042
231.716125 75.459457
231.845398 11.03716
232.015152 21.674999
232.050858 24.69808
232.094025 11614.780273
232.177948 51.732059
232.199417 59.775612
232.253937 25.57445
232.293182 55.259399
232.312988 18.01667
232.332108 20.48007
232.353317 23.413799
232.377594 28.09787
232.396912 48.03001
232.444336 26.14744
232.466217 9.053572
232.50296 24.7756
232.535645 13.74242
232.564606 67.15564
232.606934 12.46833
232.630066 18.96311
232.644531 2.75
232.656906 25.08046
232.694992 36.33609
232.73291 19.49634
232.77597 16.672621
232.814911 17.77412
232.836395 42.761902
232.966949 12.37061
233.031219 12.14881
233.04866 15.95402
233.468277 12.67302
233.911484 21.61754
238.008118 58.16082
240.022079 18.299379
240.06012 59.94305
241.06636 58.851681
241.61795 11.02976
241.714691 10.03704
241.771545 56.797779
241.842178 23.1131
241.935135 15.45581
242.078323 31.612
242.326859 11.72185
242.396896 2.0
242.498367 13.92857
243.031677 22.839741
243.086227 9825.453125
243.139053 7.564815
243.152206 49.6754
243.173416 48.206059
243.190887 15.5625
243.204636 35.665878
243.233917 49.99297
243.263672 14.73986
243.286224 11.45833
243.298859 23.268141
243.323441 58.170952
243.352554 9.427083
243.381607 38.631111
243.425613 21.006411
243.467361 46.722549
243.497437 12.98039
243.514328 13.66774
243.595215 14.36364
243.690811 41.005951
243.809692 21.75556
243.910141 23.07807
243.953827 16.415649
244.024933 16.334261
244.056992 24.65484
244.350494 4.041667
244.796112 13.66774
244.906143 11.04545
245.026001 17.480021
245.0504 17.70833
249.808777 13.36925
251.040329 339.956787
253.22377 11.09399
255.085876 20.600929
256.01709 27.20833
256.572815 11.55136
256.6008 41.44463
256.746796 20.561991
256.771362 10.32065
257.063507 20.010099
257.090302 72.028572
257.15271 14.58586
257.197327 18.00725
257.309631 12.74242
257.66449 12.1859
257.699707 42.711109
257.839355 11.21333
258.072998 6332.494141
258.129761 5.226852
258.143555 82.582314
258.169037 19.0005
258.248108 16.497129
258.269653 12.69345
258.301239 22.111111
258.331177 10.10727
258.419617 29.76634
258.439301 4.013889
258.478149 2.893518
258.526703 11.0704
258.549744 16.354839
258.748718 17.81855
259.064484 25.506229
259.081451 282.308502
259.899689 20.979429
268.066589 16.33333
269.059235 73.224739
269.458191 12.43011
269.52063 11.88005
269.990234 30.19977
270.011475 12.15686
270.509979 17.201269
271.104248 3941.745117
271.183838 35.76136
271.275391 33.662479
271.298584 22.249069
271.323914 24.33518
271.359436 43.630192
271.386108 12.73177
271.430817 29.436319
271.472687 18.51716
271.489807 14.03858
271.581543 20.086809
271.631653 57.833
271.720337 75.568237
271.879211 9.666667
272.063202 20.976191
272.091492 19.67544
272.184387 22.59572
272.236969 18.889549
273.04718 52.59277
283.070343 45.307701
284.107544 331.048401
284.174011 12.30769
284.25235 19.18519
284.422455 14.01389
284.441833 18.33333
284.463531 17.44676
284.510468 15.42424
284.570343 67.01297
284.641052 32.382938
284.673676 12.68421
284.786346 16.59868
285.337463 25.92708
285.767609 11.40517
286.128479 9238.762695
286.199371 37.297619
286.226135 17.8776
286.298126 23.576111
286.365967 31.756269
286.450348 49.811611
286.503845 42.087509
286.52066 32.377781
286.539093 16.68627
286.638367 18.530741
286.656342 11.51894
286.672455 12.30616
286.705811 41.879639
286.761505 39.678181
286.797394 42.403568
286.843353 12.25941
286.863739 27.36364
286.898224 12.3869
287.064423 224.779297
287.422546 2.678571
287.488434 20.80278
287.63501 17.391199
288.316803 10.04167
288.65625 7.787879
288.683289 2.4
288.97583 9.469697
295.839966 14.07562
296.100769 189.208893
296.122162 23.127649
297.111694 165.681
299.238953 18.676769
299.420074 11.02083
300.087311 26.24008
300.490936 38.165279
301.080963 366.487305
301.558594 14.1589
302.115295 219.715897
302.919434 6.016304
312.476288 20.52137
313.301819 24.43803
314.064209 18.018749
314.109894 1640.803955
314.213409 13.48159
314.243408 25.02216
314.261505 13.33991
314.527435 16.77688
314.767426 20.000509
315.515045 13.00833
316.58847 36.782612
324.287933 11.68056
324.999054 13.75439
326.842255 16.503469
327.109589 23.55769
327.908875 11.02083
328.441803 17.67803
329.741913 10.78305
329.832336 17.817181
329.873932 11.70833
329.913818 28.42037
329.92865 46.57576
329.966736 69.112663
329.98999 122.236504
329.999207 51.34465
330.031982 65.253967
330.065704 209.640305
330.087982 276.014709
330.125336 104.242599
330.155731 373.611206
330.191772 271.635895
330.231964 342.888885
330.265442 124.848
330.295471 169.714905
330.332184 40.92004
330.353241 151.939606
330.392395 239.691101
330.432556 120.456802
330.477234 153.098404
330.508942 60.45813
330.537109 131.280304
330.609558 62.58374
330.677856 9.176471
330.748932 29.08782
330.811249 47.261002
330.874634 18.066669
331.50119 56.95496
331.572174 39.020199
331.640106 11.12255
331.672241 28.53912
331.711182 24.5763
331.77536 40.775921
331.812897 52.538059
331.835785 21.66865
331.873077 32.61264
331.934357 11.44907
332.062744 84.565224
332.122314 217854.296875
332.460022 19.191669
332.501068 83.852951
332.54248 41.808472
332.584534 31.182529
332.612213 48.748169
332.639862 17.559
332.669708 170.854797
332.691681 27.749599
332.715057 251.957108
332.758911 126.202003
332.777435 38.92667
332.791656 211.718903
332.857056 311.919403
332.898071 66.024384
332.922241 132.353394
332.957825 189.031006
332.995667 305.71051
333.05069 172.256302
333.197601 219.430298
333.277039 45.266911
333.323761 56.98764
333.378265 18.16157
333.434967 176.700104
333.570801 56.5504
333.60791 28.690689
333.63916 88.604149
333.741058 55.363171
333.773224 71.654572
333.871643 48.921131
334.033539 56.704041
334.088074 66.123161
334.153687 6.666667
334.298981 29.331141
334.334106 84.065651
334.399872 34.770649
334.533234 41.509491
334.611786 15.77778
334.72229 33.75
334.805389 75.318123
334.85141 41.995571
334.886139 24.66729
334.968201 16.33333
335.044739 13.67803
335.104767 15.66667
335.153229 4.898148
335.204224 11.75556
335.243286 27.47756
335.317444 14.80556
336.074768 11.5625
336.11554 11.97543
336.172668 13.33696
336.262054 14.33333
336.342834 15.29688
336.376801 14.34099
336.544952 29.655979
336.766022 19.04167
336.874786 15.55227
336.986664 44.260521
337.462646 18.217739
337.789185 29.723961
338.152863 10.47738
339.254364 23.805559
339.928497 25.28137
343.772888 22.080879
344.147766 2.053571
344.350372 13.375
346.468781 2.0
347.684845 27.33333
350.573212 10.40374
354.632355 12.04167
356.652802 19.2288
359.165558 21.853359
386.035492 13.30876
388.424652 37.183762
527.156006 27.777781
729.248718 11.70417
932.05957 20.26449
1493.217285 75.058197
1567.263672 18.73016
