>compound MLS000863658-01!3-hydroxy-3,4-bis[(4-hydroxy-3-methoxyphenyl)methyl]oxolan-2-one
>formula C20H22O7
>ionization [M+H]+
>parentmass 375.144
#inchi InChI=1S/C20H22O7/c1-25-17-8-12(3-5-15(17)21)7-14-11-27-19(23)20(14,24)10-13-4-6-16(22)18(9-13)26-2/h3-6,8-9,14,21-22,24H,7,10-11H2,1-2H3
#inchikey ZITBJWXLODLDRH
#Ion_Source LC-ESI
#Instrument qTof
#Compound_Source NIH Natural Product Library
#PI Dorrestein
#Data_Collector VVP/LMS
#Scan -1
#Precursor_MZ 375.144
#ExactMass 374.137
#Charge 1
#CAS_Number N/A
#Pubmed_ID N/A
#Smiles COc1cc(CC2COC(=O)C2(O)Cc3ccc(O)c(OC)c3)ccc1O
#INCHI_AUX N/A
#Library_Class 3
#SpectrumID CCMSLIB00000080329
#IonMode Positive
#UpdateWorkflowName UPDATE-SINGLE-ANNOTATED-BRONZE
#LibraryQualityString Bronze
#TaskID b1d8e8f6646f4e71acdff9ca3d919d08
##Scan# 1721
#SpectrumFile p2-C07_GC7_01_18007.mzXML
#LibraryName NIH_Natural_Products_Library.mgf
#MQScore -1
#Organism NIH_Natural_Products_Library
#TIC_Query 0
#RT_Query -1
#MZErrorPPM -1
#SharedPeaks 0
#MassDiff 0
#LibMZ -1
#SpecMZ 375.144
#SpecCharge 0
#internalFilename spec-00000.mgf

>collision 10
95.029892 208.0
95.048752 184.0
95.317932 172.0
95.45916 120.0
96.852631 116.0
97.21582 80.0
97.523849 196.0
97.810844 168.0
98.637329 200.0
101.462173 184.0
101.949921 212.0
102.322037 140.0
103.05764 448.0
104.044525 148.0
104.164337 44.0
105.068184 44.0
106.823822 208.0
107.051628 296.0
108.214783 124.0
109.06324 152.0
109.702286 152.0
114.0896 168.0
115.031166 224.0
115.057533 592.0
115.955177 76.0
118.080147 160.0
121.068253 164.0
121.217216 212.0
122.034935 832.0
122.103828 84.0
122.205292 68.0
123.037971 172.0
123.442711 80.0
124.428703 68.0
125.060349 188.0
125.552383 120.0
127.057739 292.0
127.100365 196.0
128.065887 204.0
128.166168 144.0
129.070831 640.0
130.04541 104.0
130.074921 144.0
131.051529 508.0
131.536301 136.0
131.938354 148.0
132.586121 88.0
133.148178 128.0
133.863373 144.0
134.036133 224.0
135.065796 136.0
136.347946 168.0
136.966843 172.0
136.997116 228.0
137.022751 208.0
137.060226 5240.0
137.778625 44.0
137.991302 76.0
138.01001 48.0
138.064636 456.0
138.853012 140.0
139.068726 200.0
141.035583 164.0
143.044678 124.0
144.058945 348.0
144.828369 76.0
145.067734 332.0
145.941879 104.0
146.068405 228.0
147.194824 64.0
147.414642 200.0
148.050613 332.0
149.031845 224.0
149.057358 264.0
149.077026 196.0
149.568298 28.0
151.073898 144.0
152.07608 88.0
153.056961 132.0
155.058914 216.0
156.053329 220.0
157.068604 652.0
158.006165 60.0
158.063705 208.0
159.041092 292.0
159.06871 204.0
160.057388 372.0
160.813019 148.0
161.057938 180.0
163.077103 348.0
166.072266 152.0
166.095352 52.0
168.104675 160.0
170.076767 156.0
171.048904 180.0
173.056473 164.0
174.069473 716.0
174.094833 148.0
175.077591 1352.0
176.079208 400.0
179.082672 132.0
184.179092 88.0
187.074005 476.0
189.089005 596.0
190.026657 36.0
190.070557 224.0
190.102493 144.0
191.083405 460.0
197.06488 116.0
199.038696 40.0
199.24176 116.0
199.961594 148.0
200.043228 140.0
201.069183 104.0
202.077972 136.0
203.049576 84.0
204.957031 92.0
205.085266 64.0
206.084061 116.0
207.091003 144.0
208.086517 336.0
209.095001 164.0
213.367355 212.0
215.077301 160.0
218.073639 308.0
219.018112 108.0
219.074722 200.0
220.085678 184.0
221.055206 148.0
221.090714 84.0
221.360092 112.0
223.077927 208.0
223.985504 96.0
229.086914 284.0
233.077499 168.0
234.090424 156.0
235.007904 132.0
236.086166 316.0
236.107574 180.0
237.093353 188.0
239.07106 132.0
247.081497 156.0
249.098495 148.0
249.764877 124.0
251.105698 156.0
252.113708 72.0
253.07988 200.0
261.088074 420.0
262.063416 128.0
263.066376 128.0
263.101898 48.0
264.077087 312.0
265.074097 208.0
275.062714 144.0
278.101898 136.0
279.080933 236.0
279.104156 428.0
280.108978 140.0
281.090393 128.0
281.120422 180.0
282.078979 136.0
283.10611 140.0
284.108276 140.0
286.474915 148.0
291.122131 184.0
292.07373 132.0
293.026917 156.0
295.105408 72.0
296.105072 216.0
299.136444 148.0
311.130188 160.0
339.122803 116.0
373.111053 148.0
373.195618 148.0
399.05072 144.0
426.161926 124.0
641.379944 136.0
670.86499 128.0
799.140076 128.0
987.912354 112.0
1019.050781 192.0
1070.973267 92.0
1101.566284 76.0
1128.494629 152.0
1146.072754 144.0
1151.692139 64.0
1156.479126 148.0
1157.941528 220.0
1184.922729 20.0
1194.003906 160.0
1209.589844 96.0
1281.422852 188.0
1303.812134 132.0
1306.803467 164.0
1315.263672 184.0
1323.150146 92.0
1333.57373 164.0
1368.614502 164.0
1395.702637 220.0
1396.163574 44.0
1400.256714 188.0
1401.277222 228.0
1404.43042 196.0
1408.572998 212.0
1425.181641 220.0
1434.815063 36.0
1436.277954 152.0
1437.02478 112.0
1439.847778 108.0
1442.892944 168.0
1443.505371 192.0
1448.545776 160.0
1451.092041 80.0
1461.580811 248.0
1464.427856 176.0
1478.390991 156.0
