>compound Idarubicin
>formula C26H27NO9 
>ionization [M+H]+
>parentmass 498.177307
#inchi InChI=1S/C26H27NO9/c1-10-21(29)15(27)7-17(35-10)36-16-9-26(34,11(2)28)8-14-18(16)25(33)20-19(24(14)32)22(30)12-5-3-4-6-13(12)23(20)31/h3-6,10,15-17,21,29,32-34H,7-9,27H2,1-2H3/t10-,15-,16-,17-,21+,26-/m0/s1
#inchikey XDXDZDZNSLXDNA
#Ion_Source LC-ESI
#Instrument qTof
#Compound_Source Isolated
#PI Sirenas
#Data_Collector Ed Esquenazi 
#Scan -1
#Precursor_MZ 498.177
#ExactMass 0.0
#Charge 1
#CAS_Number N/A
#Pubmed_ID N/A
#Smiles N/A
#INCHI_AUX N/A
#Library_Class 3
#SpectrumID CCMSLIB00000005988
#IonMode Positive
#UpdateWorkflowName UPDATE-SINGLE-ANNOTATED-BRONZE
#LibraryQualityString Bronze
#TaskID d19310cd93df49b68e9fcbec27720eb5
##Scan# 1
#SpectrumFile Idarubicin.mgf
#LibraryName fda_library.mgf
#MQScore -1
#Organism fda_library
#TIC_Query 0
#RT_Query -1
#MZErrorPPM -1
#SharedPeaks 0
#MassDiff 0
#LibMZ -1
#SpecMZ 498.177
#SpecCharge 0
#internalFilename spec-00000.mgf

>collision 10
102.092361 23.209669
104.070381 101.4981
106.033325 29.251699
112.076256 432.717896
112.427238 20.975559
113.054962 28.02837
113.059784 3074.25708
113.105812 26.685699
113.145195 13.85553
113.213486 8.035504
113.319748 13.02412
113.372673 18.189659
113.488571 12.35188
113.552605 13.51714
114.427139 2.834239
128.855209 8.500331
129.239105 9.193452
129.290085 28.15201
129.320755 26.515779
129.353577 44.751041
129.39415 63.826591
129.433533 41.225189
129.468048 4.682449
129.486923 69.52124
129.518463 45.500561
129.551392 27.923611
129.587753 37.223961
129.613815 23.20809
129.638412 26.501261
129.664658 21.082029
129.673828 10.31828
129.693008 22.22628
129.718948 36.528049
129.752914 16.66741
129.836121 26.40962
129.876038 14.23852
129.911774 1.020833
129.960678 9.852564
129.976013 7.541159
130.007156 13.96144
130.034332 15.81337
130.086868 77886.226562
130.134979 11.10884
130.149811 0.860119
130.253815 18.22917
130.264908 8.198232
130.372482 11.15097
130.379532 11.42529
130.41185 4.840278
130.430435 88.07798
130.452042 74.189323
130.479156 3.625
130.486542 60.569592
130.52153 45.504581
130.545502 58.823151
130.565613 19.09115
130.584091 55.32151
130.616394 53.555759
130.634018 57.408581
130.66748 28.210449
130.687027 10.1288
130.738235 15.16468
130.761032 18.106199
130.774216 13.19693
130.791092 9.847811
130.823593 23.448071
130.871582 10.5873
130.95993 27.361019
130.999634 13.02935
131.129501 21.596519
131.183868 14.85826
131.215927 15.55146
131.228149 15.86525
131.305756 16.32292
131.351715 25.530531
131.374527 15.79356
131.662308 8.590612
131.693924 7.926136
131.767792 8.061237
131.816071 8.208333
131.889664 10.02083
132.008698 10.43006
132.243774 10.32996
134.054764 2.09375
135.093597 11.4607
142.075577 4.662725
148.09819 367.611298
149.480377 12.84813
151.676117 3.316886
189.062881 19.255871
208.228073 2.347222
217.059921 38.14418
253.483566 40.721821
263.32663 8.726808
269.424988 2.833965
275.078918 17.25934
288.87381 8.362309
289.236664 10.85556
289.264618 5.927083
289.294281 12.24094
289.43866 9.910473
289.460327 18.97756
289.494995 29.0
289.520233 15.7125
289.601471 5.633333
289.637482 7.51929
289.691071 16.859381
289.74649 10.75694
289.939728 19.060881
290.051666 8.334559
290.158783 10.36667
290.604248 9.222552
290.745422 15.25633
291.013702 74.940613
291.066132 13548.450195
291.21106 12.81492
291.462646 43.53133
291.536591 15.76857
291.609192 51.65461
291.642151 24.215611
291.695984 23.63467
291.719849 27.35952
291.758057 31.028839
291.789001 14.06772
291.855743 13.40362
291.889954 19.479679
291.908752 19.87652
291.933197 22.11161
292.170105 8.54823
292.393585 29.826481
292.558411 14.01748
292.579071 11.37121
293.172058 8.255483
293.234375 8.003989
293.817566 8.405357
294.984619 4.561237
304.633179 3.407408
327.476532 2.678571
330.288574 13.22596
330.891632 24.549589
330.923706 32.39941
330.96817 10.06818
331.021454 17.67094
331.052612 10.2279
331.08197 24.35463
331.099976 14.8373
331.138336 25.00791
331.226044 13.53191
331.544586 12.13077
331.746124 9.67326
331.771484 21.6513
331.855011 1.963141
332.0224 18.136221
332.208374 9.329301
332.30307 14.60684
332.384247 8.038462
333.076996 18235.910156
333.128937 1.193452
333.154297 0.833333
333.17337 2.027412
333.303162 20.958639
333.35437 2.395833
333.639923 29.682211
333.688507 63.003738
333.713318 1.834936
333.74527 86.253227
333.781158 27.816139
333.848999 66.09185
333.885498 12.2617
333.952057 51.360081
333.997589 8.799586
334.044861 8.6244
334.317322 34.326099
334.397797 11.17222
334.724762 15.7426
334.902802 9.859868
334.992188 10.67066
335.272125 12.50038
335.373871 7.565217
335.790344 11.59414
338.02359 9.520017
338.556458 8.486743
338.73999 8.462607
338.855957 11.31507
347.105896 10.4656
347.134277 2.1675
348.828583 9.863971
348.896362 18.94286
348.959167 15.04823
349.047424 16.4844
349.081177 12.33654
349.249695 25.40299
349.315552 8.449074
349.58902 15.75172
351.087128 7077.625977
351.299042 40.579491
351.329834 11.20153
351.354797 7.823139
351.374634 11.43962
351.40918 8.303926
351.458099 28.416901
351.505188 14.82911
351.546204 13.75672
351.611664 24.74762
351.647186 8.831488
351.675751 36.9039
351.693024 30.793209
351.725677 19.16324
351.759521 13.8455
351.843994 12.94001
352.417389 14.50172
352.515411 8.8875
352.555908 7.522059
352.630829 16.64628
352.795074 8.260869
352.900635 8.373397
353.291595 14.26786
353.620178 9.221783
354.027069 9.993251
356.154419 15.13361
356.180084 9.694283
368.114685 44.04689
369.095825 136.858704
422.2659 6.953224
454.138153 12.12981
480.165161 65.777031
495.061218 3.78125
495.126556 7.753472
495.294556 12.34896
495.408661 20.713619
497.713623 9.797839
497.843384 12.36667
498.046143 49.244751
498.177307 6691.972168
498.238007 1.183712
498.271301 31.058229
498.32074 1.946759
498.410889 27.77079
498.511078 36.542381
498.623199 38.053989
498.698364 10.97408
498.758698 41.157051
498.791534 16.55426
498.824249 26.265471
498.867432 30.744381
498.963287 50.797909
499.065216 22.13958
499.095551 17.007681
499.544952 11.08224
647.305786 22.38435
1155.184082 3.673611
1277.664307 20.716311
