>compound MLS001077309-01!
>formula C16H18N2O3
>ionization [M+H]+
>parentmass 287.138
#inchi InChI=1S/C16H18N2O3/c1-16(2)15(20)14(18-7-3-4-13(18)19)11-8-10(9-17)5-6-12(11)21-16/h5-6,8,14-15,20H,3-4,7H2,1-2H3/t14-,15+/m1/s1
#inchikey TVZCRIROJQEVOT
#Ion_Source LC-ESI
#Instrument qTof
#Compound_Source NIH Pharmacologically Active Library
#PI Dorrestein
#Data_Collector VP/LMS
#Scan -1
#Precursor_MZ 287.138
#ExactMass 286.132
#Charge 1
#CAS_Number N/A
#Pubmed_ID N/A
#Smiles CC1(C)Oc2ccc(C#N)cc2[C@H]([C@@H]1O)N3CCCC3=O
#INCHI_AUX N/A
#Library_Class 1
#SpectrumID CCMSLIB00000085058
#IonMode Positive
#UpdateWorkflowName UPDATE-SINGLE-ANNOTATED-GOLD
#LibraryQualityString Gold
#TaskID d252d724072548979f1f6f1ced849daf
##Scan# 1708
#SpectrumFile p3-E04_GE4_01_18273.mzXML
#LibraryName Pharm_Active_Library.mgf
#MQScore -1
#Organism Pharm_Active_Library
#TIC_Query 0
#RT_Query -1
#MZErrorPPM -1
#SharedPeaks 0
#MassDiff 0
#LibMZ -1
#SpecMZ 287.138
#SpecCharge 0
#internalFilename spec-00000.mgf

>collision 10
45.486198 136.0
46.257301 96.0
46.658878 180.0
47.032154 144.0
47.178326 168.0
47.816196 148.0
48.116714 172.0
48.239674 72.0
48.822048 52.0
49.363159 68.0
49.486298 132.0
49.669895 108.0
52.631989 164.0
53.67535 256.0
53.822735 232.0
54.964802 120.0
55.389133 200.0
55.432102 156.0
56.613491 156.0
56.999035 112.0
59.045753 132.0
59.470173 56.0
59.654507 156.0
60.232395 160.0
60.657948 156.0
61.278053 144.0
61.866863 224.0
62.021954 164.0
62.603291 76.0
62.677334 168.0
63.426479 240.0
65.145203 112.0
65.566788 120.0
65.82975 108.0
66.96505 140.0
67.209595 168.0
67.898323 48.0
71.334084 212.0
71.82074 128.0
73.782211 232.0
73.898346 164.0
76.745186 132.0
77.891541 84.0
78.040932 132.0
79.60836 132.0
79.786049 108.0
80.35955 116.0
80.883186 144.0
81.001373 112.0
81.239799 188.0
81.586411 224.0
81.69072 148.0
85.023346 80.0
85.539848 140.0
86.033913 140.0
86.63311 68.0
88.151421 144.0
88.679199 200.0
89.030045 192.0
89.603767 156.0
89.920578 160.0
90.169884 60.0
93.031044 76.0
94.188408 108.0
94.228981 116.0
94.474518 264.0
95.077141 112.0
95.112076 212.0
97.157257 136.0
97.231819 80.0
99.176613 108.0
100.016846 132.0
100.1642 244.0
100.566986 152.0
103.054413 264.0
104.021317 216.0
104.049095 392.0
104.090347 180.0
104.645462 88.0
105.032669 144.0
105.069397 452.0
105.659843 72.0
106.071472 144.0
107.750793 180.0
108.946213 216.0
109.680809 188.0
110.34259 140.0
110.49527 172.0
111.901497 204.0
112.574158 92.0
112.724144 100.0
112.984222 200.0
114.504105 172.0
115.051804 184.0
115.458122 164.0
115.595032 232.0
116.052269 264.0
116.074883 168.0
116.325912 88.0
116.88903 188.0
117.055573 476.0
117.544121 68.0
118.064758 356.0
118.328751 228.0
118.781693 156.0
119.897125 112.0
120.361786 84.0
122.035858 160.0
123.254807 148.0
123.396263 184.0
123.752495 60.0
126.097229 280.0
127.055649 156.0
127.334 108.0
128.058716 496.0
128.999191 128.0
129.070221 676.0
130.066132 164.0
131.046326 180.0
131.071808 216.0
131.954727 48.0
131.970734 60.0
132.043121 2028.0
132.110245 84.0
132.575058 68.0
133.048691 180.0
133.066284 328.0
133.403671 152.0
134.276367 132.0
134.999237 48.0
135.089447 264.0
136.111572 60.0
136.376419 136.0
136.948807 196.0
139.534714 168.0
140.052429 164.0
140.809555 116.0
141.056717 200.0
142.015564 128.0
142.066559 232.0
143.063385 176.0
144.008926 156.0
144.04184 1364.0
144.068649 152.0
145.052567 532.0
145.328003 244.0
145.536835 108.0
145.580048 224.0
146.054718 188.0
146.573563 108.0
148.035049 164.0
148.052002 160.0
149.022308 136.0
149.131668 152.0
149.328613 64.0
150.049423 32.0
150.073807 136.0
154.069595 200.0
155.074265 196.0
156.045135 272.0
156.082092 440.0
157.046005 120.0
157.069061 148.0
158.052383 184.0
158.373276 128.0
159.057816 132.0
159.233582 180.0
159.268753 72.0
159.794159 140.0
159.862106 180.0
160.01564 132.0
160.037979 188.0
160.074707 8648.0
160.125656 64.0
160.181717 96.0
160.302795 48.0
160.324539 64.0
160.524002 144.0
160.582642 52.0
160.628052 68.0
160.688599 40.0
160.718872 88.0
160.822342 56.0
160.910706 172.0
160.940994 36.0
160.96373 128.0
161.011703 36.0
161.031906 172.0
161.075958 900.0
161.110214 56.0
161.236557 132.0
161.345261 76.0
162.21106 92.0
162.974976 44.0
166.069138 180.0
166.479782 200.0
169.055206 108.0
169.081085 144.0
172.031342 196.0
172.071106 356.0
174.262741 84.0
174.373108 56.0
178.090714 88.0
183.076187 80.0
184.074951 1224.0
184.112442 168.0
185.077591 408.0
186.074707 192.0
186.944809 64.0
198.052399 552.0
198.098022 32.0
199.060074 176.0
199.14151 164.0
200.128601 148.0
201.056046 212.0
201.101196 164.0
202.028061 184.0
202.079803 180.0
202.305389 80.0
203.09317 152.0
214.953415 40.0
215.082367 204.0
215.762497 88.0
216.488159 180.0
217.614166 136.0
219.061142 60.0
222.123703 52.0
227.045227 220.0
227.075211 156.0
236.670197 80.0
240.170639 84.0
242.018753 124.0
291.987335 56.0
325.076294 116.0
366.87674 100.0
376.152863 64.0
420.74408 80.0
657.200745 76.0
777.741638 244.0
777.902588 48.0
927.924744 172.0
985.867188 160.0
1017.88269 180.0
1032.079956 208.0
1033.723877 160.0
1059.071655 204.0
1065.006714 204.0
1080.580811 176.0
1100.667969 96.0
1109.633667 128.0
1115.196655 184.0
1120.267212 76.0
1120.353882 108.0
1173.813965 160.0
1212.415894 184.0
1233.072632 112.0
1253.762939 28.0
1255.229248 76.0
1286.455688 124.0
1305.536865 212.0
1320.78418 128.0
1327.309692 196.0
1332.58667 184.0
1343.047974 168.0
1352.883911 128.0
1358.945068 108.0
1365.519897 156.0
1378.362427 112.0
1397.48584 116.0
1427.639771 248.0
1427.842896 80.0
1440.99707 196.0
1443.778931 148.0
1447.259888 152.0
1450.790527 220.0
1456.489624 152.0
1462.100952 204.0
1481.855957 44.0
1489.412598 116.0
1501.882446 152.0
