>compound MLS000069748-01!5ALPHA-ANDROST-16-EN-3-ONE
>formula C19H28O
>ionization [M+H]+
>parentmass 273.223
#inchi InChI=1S/C19H28O/c1-18-9-3-4-16(18)15-6-5-13-12-14(20)7-11-19(13,2)17(15)8-10-18/h3,9,13,15-17H,4-8,10-12H2,1-2H3/t13-,15-,16-,17-,18-,19-/m0/s1
#inchikey HFVMLYAGWXSTQI
#Ion_Source LC-ESI
#Instrument qTof
#Compound_Source NIH Pharmacologically Active Library
#PI Dorrestein
#Data_Collector VP/LMS
#Scan -1
#Precursor_MZ 273.223
#ExactMass 272.214
#Charge 1
#CAS_Number N/A
#Pubmed_ID N/A
#Smiles C[C@@]12CC[C@H]3[C@@H](CC[C@H]4CC(=O)CC[C@@]43C)[C@@H]2CC=C1
#INCHI_AUX N/A
#Library_Class 1
#SpectrumID CCMSLIB00000085124
#IonMode Positive
#UpdateWorkflowName UPDATE-SINGLE-ANNOTATED-GOLD
#LibraryQualityString Gold
#TaskID d252d724072548979f1f6f1ced849daf
##Scan# 3060
#SpectrumFile p3-F03_GF3_01_18284.mzXML
#LibraryName Pharm_Active_Library.mgf
#MQScore -1
#Organism Pharm_Active_Library
#TIC_Query 0
#RT_Query -1
#MZErrorPPM -1
#SharedPeaks 0
#MassDiff 0
#LibMZ -1
#SpecMZ 273.223
#SpecCharge 0
#internalFilename spec-00000.mgf

>collision 10
45.435001 148.0
47.200024 208.0
47.879356 64.0
48.454025 48.0
48.613491 180.0
49.650101 212.0
49.673946 188.0
50.424488 140.0
52.175106 120.0
52.311779 172.0
53.064514 104.0
53.105122 212.0
53.44799 212.0
53.611095 168.0
54.674385 140.0
55.107941 184.0
55.156715 152.0
56.73629 160.0
56.776775 68.0
57.345116 176.0
57.563881 132.0
57.67569 220.0
58.834827 152.0
61.01033 100.0
61.437065 68.0
62.373569 172.0
62.842899 148.0
64.079674 160.0
64.576164 228.0
65.053688 140.0
65.983299 220.0
67.695168 152.0
68.164345 204.0
68.64669 172.0
69.443878 132.0
69.845856 56.0
70.795578 172.0
71.025208 244.0
71.288811 176.0
72.297333 160.0
73.205605 48.0
74.851349 188.0
75.272118 104.0
76.09288 92.0
76.867477 180.0
78.220589 124.0
78.892723 136.0
79.734726 240.0
81.568687 112.0
81.984474 216.0
82.462761 168.0
83.969788 136.0
84.451988 192.0
84.537979 196.0
85.906883 176.0
86.276779 168.0
86.318779 164.0
86.785416 124.0
87.493324 192.0
87.51194 180.0
88.239624 168.0
88.64769 148.0
89.222069 136.0
90.548668 200.0
91.051094 768.0
91.066475 220.0
92.053032 92.0
92.316757 168.0
92.960449 164.0
93.069672 912.0
93.158218 152.0
94.084564 136.0
94.246803 152.0
94.796379 176.0
95.080315 356.0
95.384483 84.0
95.851593 172.0
96.237823 104.0
96.763794 212.0
97.077316 160.0
97.462074 228.0
97.6213 48.0
97.699982 64.0
98.93148 188.0
99.635544 180.0
99.931793 76.0
101.189247 176.0
101.895248 156.0
103.219559 112.0
103.756134 128.0
104.059967 244.0
104.76458 144.0
105.067757 2776.0
105.225105 220.0
105.748444 52.0
105.891769 144.0
106.002403 156.0
106.072189 232.0
106.203323 64.0
106.591354 116.0
107.084732 1236.0
107.163399 208.0
107.751434 176.0
108.085648 176.0
108.55043 260.0
109.100716 352.0
110.109222 184.0
110.690613 180.0
110.921082 136.0
111.10144 220.0
112.387001 136.0
114.14093 152.0
114.255791 176.0
114.81176 176.0
115.056763 508.0
116.059708 312.0
117.06916 628.0
117.169731 56.0
117.301193 204.0
118.005013 132.0
118.070335 400.0
118.093674 152.0
118.684906 192.0
118.778168 212.0
118.797691 64.0
119.083534 1328.0
119.532089 40.0
119.880524 64.0
120.091118 392.0
120.762566 104.0
121.099281 504.0
121.270554 128.0
121.990555 108.0
123.003906 188.0
123.711319 176.0
127.070053 312.0
128.055588 228.0
128.7742 212.0
129.066635 548.0
129.262543 164.0
129.754059 44.0
130.073303 424.0
131.082336 1592.0
131.25705 52.0
131.462357 88.0
132.089386 252.0
132.108994 120.0
132.619644 112.0
133.014191 188.0
133.099289 1520.0
133.296692 40.0
134.102173 520.0
134.485092 40.0
134.720963 140.0
135.114975 808.0
135.141434 236.0
135.878235 148.0
135.950165 124.0
136.11499 160.0
137.099045 124.0
140.044174 176.0
141.068069 208.0
141.745224 156.0
142.071182 520.0
143.0849 748.0
143.690262 48.0
144.091965 896.0
144.182175 164.0
144.430847 128.0
145.098267 1388.0
146.106216 300.0
146.271362 188.0
147.114731 704.0
147.135208 148.0
147.3228 40.0
147.38562 120.0
147.571747 60.0
149.091675 116.0
149.134354 324.0
149.305618 92.0
154.068527 200.0
155.059341 180.0
155.080643 132.0
155.221954 44.0
155.678574 124.0
156.091812 420.0
156.188095 196.0
156.566422 76.0
157.098663 572.0
157.172195 56.0
158.098557 180.0
158.657913 196.0
159.066833 188.0
159.089432 176.0
159.11264 1352.0
159.220001 44.0
160.112839 352.0
161.129486 1156.0
161.776871 72.0
162.133652 408.0
166.47113 100.0
167.088043 184.0
168.075638 204.0
169.098618 212.0
170.111801 132.0
170.680801 172.0
171.003403 208.0
171.113144 368.0
171.232513 68.0
171.649506 68.0
172.118362 320.0
172.142715 140.0
172.717712 52.0
173.021271 156.0
173.130417 588.0
173.936203 92.0
174.133423 184.0
175.144684 448.0
176.082184 160.0
176.13765 144.0
176.59494 96.0
176.965424 52.0
181.104004 260.0
184.104141 184.0
184.122223 216.0
185.12529 420.0
185.436737 124.0
186.095947 164.0
186.13681 164.0
187.145142 428.0
187.183624 92.0
187.821396 108.0
188.152832 176.0
189.163315 168.0
191.040207 168.0
196.107819 196.0
197.134888 484.0
198.137222 244.0
199.144897 504.0
200.150269 312.0
202.355774 80.0
205.148575 124.0
206.839737 68.0
209.873642 172.0
211.144287 108.0
212.14328 272.0
213.164124 296.0
215.176727 520.0
215.554535 80.0
215.589615 56.0
216.190018 184.0
217.15303 124.0
217.182373 136.0
225.156433 172.0
227.180252 284.0
228.183014 140.0
239.433853 60.0
246.707443 216.0
255.212372 552.0
256.22052 180.0
269.096313 68.0
269.713745 76.0
271.186707 176.0
272.193909 200.0
272.216888 92.0
273.018768 132.0
273.225983 296.0
274.157867 156.0
275.173859 152.0
276.191711 136.0
289.053345 160.0
338.72525 96.0
376.220215 196.0
402.075867 80.0
524.253601 20.0
540.644714 88.0
783.026733 88.0
792.669373 212.0
871.741211 176.0
880.484009 124.0
896.359619 156.0
902.149231 236.0
922.493164 164.0
934.039368 136.0
953.311523 164.0
989.307251 156.0
994.190125 60.0
997.820862 216.0
1045.713013 168.0
1063.734741 164.0
1068.452881 144.0
1081.255859 84.0
1097.653564 188.0
1119.689209 112.0
1127.488525 152.0
1129.354004 112.0
1160.874878 108.0
1169.864258 204.0
1170.470215 104.0
1172.854858 48.0
1193.200928 168.0
1199.831055 152.0
1210.285034 88.0
1210.45813 64.0
1212.896973 224.0
1213.874512 180.0
1239.927734 236.0
1240.355225 180.0
1287.151978 140.0
1293.57251 112.0
1294.625122 56.0
1299.32019 80.0
1307.742432 112.0
1310.680786 152.0
1314.300659 44.0
1319.493896 208.0
1319.891602 152.0
1320.151978 144.0
1320.868042 144.0
1328.452759 160.0
1329.323364 144.0
1330.949463 176.0
1335.018921 80.0
1339.160156 232.0
1340.828735 40.0
1344.767212 196.0
1363.973267 168.0
1366.010254 176.0
1366.437012 112.0
1367.548218 52.0
1382.864014 144.0
1394.085449 184.0
1400.714844 132.0
1410.692261 124.0
1412.457031 168.0
1418.545166 224.0
1430.467163 204.0
1433.103149 132.0
1436.737305 108.0
1450.235718 64.0
1455.759155 204.0
1460.342041 128.0
1468.003906 228.0
1468.209839 208.0
1471.002441 184.0
1480.889648 132.0
1486.670532 144.0
1491.540161 56.0
1492.516602 84.0
1495.247559 136.0
