>compound MLS002153864-01!(S)-()-Atenolol
>formula C14H22N2O3
>ionization [M+H]+
>parentmass 267.1703190160905
#inchi InChI=1S/C14H22N2O3/c1-10(2)16-8-12(17)9-19-13-5-3-11(4-6-13)7-14(15)18/h3-6,10,12,16-17H,7-9H2,1-2H3,(H2,15,18)/t12-/m0/s1
#inchikey METKIMKYRPQLGS
#Ion_Source LC-ESI
#Instrument qTof
#Compound_Source NIH Pharmacologically Active Library
#PI Dorrestein
#Data_Collector VP/LMS
#Scan -1
#Precursor_MZ 267.173
#ExactMass 266.163
#Charge 1
#CAS_Number N/A
#Pubmed_ID N/A
#Smiles CC(C)NC[C@H](O)COc1ccc(CC(=O)N)cc1
#INCHI_AUX N/A
#Library_Class 1
#SpectrumID CCMSLIB00000086187
#IonMode Positive
#UpdateWorkflowName UPDATE-SINGLE-ANNOTATED-GOLD
#LibraryQualityString Gold
#TaskID d252d724072548979f1f6f1ced849daf
##Scan# 1046
#SpectrumFile p5-H04_GH4_01_18479.mzXML
#LibraryName Pharm_Active_Library.mgf
#MQScore -1
#Organism Pharm_Active_Library
#TIC_Query 0
#RT_Query -1
#MZErrorPPM -1
#SharedPeaks 0
#MassDiff 0
#LibMZ -1
#SpecMZ 267.173
#SpecCharge 0
#internalFilename spec-00000.mgf

>collision 10
45.685562 188.0
46.306488 200.0
47.447052 152.0
47.549931 140.0
47.827572 140.0
49.082775 196.0
51.165337 136.0
51.543304 52.0
51.916702 176.0
51.931271 28.0
56.262062 216.0
57.586506 72.0
59.354931 156.0
59.405544 48.0
68.981201 208.0
69.355301 176.0
69.688866 200.0
70.599007 164.0
71.197289 216.0
71.656509 184.0
71.754257 200.0
72.438698 52.0
75.608192 176.0
76.70417 160.0
79.587791 164.0
79.717461 104.0
79.957542 44.0
79.984245 80.0
80.33886 56.0
80.699623 168.0
80.973419 172.0
81.488251 96.0
82.61866 176.0
83.471123 72.0
83.953697 252.0
84.218338 196.0
84.344414 160.0
84.824005 224.0
85.240631 28.0
85.793732 204.0
88.541031 200.0
89.042 204.0
90.053177 180.0
90.334824 236.0
90.537346 192.0
91.055878 416.0
93.548523 208.0
95.86895 52.0
97.010414 188.0
97.900482 108.0
98.094666 392.0
98.964821 208.0
99.794189 164.0
101.052734 124.0
101.377121 84.0
101.912888 76.0
101.999306 120.0
102.053589 48.0
102.504471 232.0
103.053513 196.0
103.629951 100.0
104.049782 204.0
105.032692 208.0
105.071495 624.0
106.067101 516.0
107.049599 1152.0
107.364738 156.0
107.42868 148.0
107.474068 140.0
107.544235 40.0
107.825127 176.0
108.054657 168.0
108.156059 176.0
108.385933 164.0
108.460548 200.0
109.511925 128.0
110.804993 172.0
112.116188 128.0
114.186745 84.0
114.751053 188.0
115.057083 508.0
115.834557 152.0
115.99527 100.0
116.052086 304.0
116.106087 292.0
116.186127 52.0
116.260445 120.0
117.033257 332.0
117.068466 1188.0
117.110466 180.0
118.068932 136.0
118.129303 220.0
118.254807 208.0
118.532005 168.0
118.547173 100.0
119.047974 600.0
121.064774 708.0
121.310921 96.0
122.065651 64.0
122.162971 172.0
122.306007 168.0
123.989021 44.0
124.068817 116.0
125.848717 92.0
125.942505 152.0
126.150322 224.0
127.050819 228.0
128.057617 156.0
128.747757 224.0
130.949951 196.0
131.04335 176.0
131.104874 248.0
132.034042 140.0
133.026184 144.0
133.064194 3168.0
133.09964 116.0
133.425903 88.0
134.063858 592.0
134.088852 140.0
134.227173 36.0
134.97995 48.0
135.062637 412.0
135.153427 116.0
135.229797 140.0
135.246002 44.0
135.880966 132.0
136.066635 192.0
136.324463 48.0
137.166992 236.0
138.042526 172.0
138.438004 164.0
140.990524 228.0
144.056488 312.0
144.08313 148.0
144.823502 176.0
145.039215 152.0
145.065186 6348.0
145.10321 140.0
145.132645 36.0
145.679855 92.0
145.725494 56.0
146.016373 188.0
146.065781 588.0
147.04631 296.0
147.799103 64.0
150.912537 144.0
151.093521 52.0
152.071106 192.0
155.504501 80.0
158.913345 188.0
162.029617 76.0
162.059174 228.0
162.092819 172.0
163.052216 132.0
163.074844 180.0
163.100586 132.0
164.068268 868.0
164.573013 76.0
164.871887 40.0
165.068726 388.0
165.171036 36.0
165.998276 172.0
166.434509 64.0
168.898285 164.0
170.557785 148.0
170.924484 208.0
173.059723 300.0
174.060303 192.0
175.793396 152.0
178.085526 628.0
178.120651 180.0
180.099762 148.0
183.106445 136.0
189.2547 68.0
190.083206 700.0
190.422928 32.0
190.46962 72.0
190.532806 120.0
191.09642 188.0
192.093704 116.0
192.734222 68.0
199.681473 60.0
202.549194 128.0
208.102264 168.0
209.096466 148.0
217.9431 136.0
223.481262 88.0
225.124023 204.0
225.273056 56.0
226.119247 84.0
228.056793 160.0
231.920303 88.0
232.141632 128.0
234.872787 100.0
234.958206 172.0
242.018219 116.0
249.141907 176.0
249.163895 148.0
263.476288 96.0
265.450684 104.0
267.168091 148.0
267.308777 84.0
270.219299 124.0
310.629333 76.0
347.811127 76.0
361.593628 92.0
529.766418 60.0
762.114868 200.0
769.346313 68.0
816.440552 156.0
975.87854 172.0
1014.548157 180.0
1037.466797 176.0
1081.445801 140.0
1109.892822 144.0
1119.288452 200.0
1139.32019 96.0
1174.208252 152.0
1181.859253 172.0
1188.821289 180.0
1191.952637 156.0
1238.751465 128.0
1248.310669 180.0
1255.077637 188.0
1265.775757 188.0
1269.942871 188.0
1278.625 160.0
1303.28186 160.0
1309.223633 116.0
1315.684204 80.0
1328.138062 136.0
1330.286011 152.0
1341.204468 168.0
1359.665039 144.0
1364.013184 116.0
1370.695801 44.0
1373.231812 232.0
1377.025513 120.0
1402.229004 164.0
1402.974487 228.0
1409.669556 188.0
1411.987061 52.0
1422.22168 104.0
1422.619507 160.0
1424.25647 136.0
1425.120483 112.0
1433.058228 188.0
1435.869995 104.0
1442.129028 168.0
1447.659424 240.0
1451.607544 156.0
1487.328613 204.0
1491.591797 148.0
1496.607788 80.0
1498.818481 112.0
