>compound Glipizide
>formula C21H27N5O4S 
>ionization [M+H]+
>parentmass 446.187
#inchi InChI=1S/C21H27N5O4S/c1-15-13-24-19(14-23-15)20(27)22-12-11-16-7-9-18(10-8-16)31(29,30)26-21(28)25-17-5-3-2-4-6-17/h7-10,13-14,17H,2-6,11-12H2,1H3,(H,22,27)(H2,25,26,28)
#inchikey ZJJXGWJIGJFDTL
#Ion_Source LC-ESI
#Instrument qTof
#Compound_Source Isolated
#PI Sirenas
#Data_Collector Ed Esquenazi 
#Scan -1
#Precursor_MZ 446.187
#ExactMass 0.0
#Charge 1
#CAS_Number N/A
#Pubmed_ID N/A
#Smiles N/A
#INCHI_AUX N/A
#Library_Class 3
#SpectrumID CCMSLIB00000006554
#IonMode Positive
#UpdateWorkflowName UPDATE-SINGLE-ANNOTATED-BRONZE
#LibraryQualityString Bronze
#TaskID d19310cd93df49b68e9fcbec27720eb5
##Scan# 2
#SpectrumFile Glipizide.mgf
#LibraryName fda_library.mgf
#MQScore -1
#Organism fda_library
#TIC_Query 0
#RT_Query -1
#MZErrorPPM -1
#SharedPeaks 0
#MassDiff 0
#LibMZ -1
#SpecMZ 446.187
#SpecCharge 0
#internalFilename spec-00000.mgf

>collision 10
100.040833 13.51087
100.111946 4005.447021
100.154076 25.73345
100.169228 25.164671
100.180244 16.630951
100.199501 25.057249
100.21505 23.242849
100.228813 22.344139
100.298569 16.480391
100.396355 15.01667
100.441315 31.761881
100.559967 18.0
100.615715 17.371849
100.68924 15.57445
100.720505 14.73035
100.903839 18.25333
101.119179 37.025002
103.053322 631.594116
107.050827 32.79845
119.078186 22.33333
120.054436 494.041901
121.039642 554.509888
121.068077 13.3668
121.612053 32.392151
138.067642 36.027401
139.018936 49.608829
139.160614 14.47348
148.02066 137.354797
149.006531 15.16263
149.057037 50.730919
150.064484 347.553589
155.017227 36.67384
165.209656 13.14815
166.032516 185.212601
166.444901 31.71072
167.016342 3687.9729
167.071091 26.587179
167.087387 16.08914
167.154846 14.42353
167.183182 27.884871
167.258438 14.55556
167.285278 15.09886
167.306351 19.557989
167.383835 23.82494
167.429031 14.75788
167.472931 14.63949
167.560226 18.760099
168.227203 12.77174
168.890991 12.70707
183.091217 57.905991
184.040863 168.572998
185.021896 18.190479
198.031982 17.03141
202.051758 41.280331
210.015747 20.621429
211.090164 23.592649
222.105209 153.303696
238.097275 140.847595
240.111649 291.865204
240.25795 12.61404
240.414932 14.875
256.108734 648.827881
256.551666 17.78241
258.067719 49.812561
284.184875 16.901239
284.523407 13.93548
284.550018 17.45833
286.020752 26.33246
286.064209 3811.677002
286.118378 14.64651
286.175537 36.86414
286.219818 27.225969
286.251801 18.46722
286.281647 32.378159
286.370636 50.486969
286.423401 22.99077
286.44751 16.77688
286.480499 17.73554
286.569183 13.72003
286.626617 39.978168
286.958252 18.48702
288.781891 13.61111
302.10379 28.59399
302.136322 18.606819
302.315552 17.752119
302.345734 12.68314
302.402405 20.12175
302.453278 19.04937
303.08844 90.27594
303.235779 29.60305
303.2901 14.0
304.02182 34.498089
304.074493 5781.681152
304.148651 27.63611
304.260254 16.51306
304.297607 50.63678
304.337372 49.165112
304.423981 13.44079
304.498627 14.38043
304.51828 54.58559
304.547699 21.964741
304.569794 13.60682
304.592224 28.96863
304.636414 58.77459
304.675354 20.254629
304.759644 26.660139
305.199615 16.380951
305.578278 24.337959
305.694427 19.10714
308.584991 12.66774
309.108429 17.23333
319.189514 65.103027
319.233826 13.01019
319.341461 12.90675
319.439667 13.66964
319.489716 82.036407
319.691254 19.67165
319.799957 18.876419
319.843933 14.68056
320.073761 33.52673
320.397919 12.75833
320.975098 64.640907
321.049957 30.38043
321.100525 12599.05957
321.2117 27.96949
321.235931 14.68056
321.272278 44.982632
321.314575 172.860794
321.339233 80.527977
321.364136 23.392969
321.3927 71.661362
321.432434 15.33642
321.451172 15.52487
321.519592 26.678431
321.545288 51.535389
321.570129 18.3787
321.656586 39.099602
321.690674 27.957239
321.721008 48.023769
321.748688 28.44907
321.856018 29.963131
321.937714 43.05209
322.020416 55.60236
322.252136 25.50329
322.499878 13.42157
322.590057 24.123739
322.79422 20.37719
323.162231 23.695419
329.001282 12.62976
344.9823 13.25494
345.066284 13.55227
347.079926 2962.620117
347.185913 20.176229
347.200714 15.58025
347.229065 27.7085
347.249939 17.920139
347.29303 26.722219
347.420502 35.9683
347.519867 14.67195
347.554443 74.892471
347.663025 20.191139
348.162903 27.588711
348.519318 15.29518
348.857147 13.66975
349.060181 13.52083
349.546387 23.98077
349.965912 16.58333
446.918365 19.740801
