>compound MLS000069438-01!3-(2-DIMETHYLAMINOETHYL)-5-METHOXYINDOLE
>formula C13H18N2O
>ionization [M+H]+
>parentmass 219.149
#inchi InChI=1S/C13H18N2O/c1-15(2)7-6-10-9-14-13-5-4-11(16-3)8-12(10)13/h4-5,8-9,14H,6-7H2,1-3H3
#inchikey ZSTKHSQDNIGFLM
#Ion_Source LC-ESI
#Instrument qTof
#Compound_Source NIH Pharmacologically Active Library
#PI Dorrestein
#Data_Collector VP/LMS
#Scan -1
#Precursor_MZ 219.149
#ExactMass 218.142
#Charge 1
#CAS_Number N/A
#Pubmed_ID N/A
#Smiles COc1ccc2[nH]cc(CCN(C)C)c2c1
#INCHI_AUX N/A
#Library_Class 1
#SpectrumID CCMSLIB00000085070
#IonMode Positive
#UpdateWorkflowName UPDATE-SINGLE-ANNOTATED-GOLD
#LibraryQualityString Gold
#TaskID d252d724072548979f1f6f1ced849daf
##Scan# 1256
#SpectrumFile p3-E06_GE6_01_18275.mzXML
#LibraryName Pharm_Active_Library.mgf
#MQScore -1
#Organism Pharm_Active_Library
#TIC_Query 0
#RT_Query -1
#MZErrorPPM -1
#SharedPeaks 0
#MassDiff 0
#LibMZ -1
#SpecMZ 219.149
#SpecCharge 0
#internalFilename spec-00000.mgf

>collision 10
45.017818 160.0
45.14077 184.0
45.206322 124.0
45.412651 180.0
45.713509 164.0
45.809208 76.0
46.493416 152.0
46.657784 144.0
47.804081 168.0
48.056255 228.0
48.933651 180.0
49.588848 176.0
49.937065 204.0
50.182106 124.0
51.45628 184.0
51.771191 108.0
51.884075 176.0
52.069191 72.0
52.366924 56.0
52.697289 156.0
52.781616 156.0
53.040287 176.0
54.455719 156.0
54.875137 144.0
55.396854 160.0
56.165413 204.0
56.243008 108.0
56.2654 208.0
56.637775 168.0
56.868694 208.0
57.38018 176.0
58.015179 148.0
58.147148 180.0
58.215469 156.0
59.439812 188.0
59.48893 148.0
60.030544 164.0
60.197212 52.0
60.642792 192.0
60.988937 164.0
61.088459 212.0
61.124245 172.0
61.943951 124.0
62.443115 172.0
63.069096 156.0
63.750629 212.0
64.151741 136.0
64.52533 176.0
64.839088 180.0
65.201813 268.0
65.402863 200.0
66.633568 124.0
66.693703 128.0
67.407562 160.0
67.77739 196.0
67.951202 176.0
68.125229 164.0
68.268234 168.0
69.003677 92.0
69.95433 136.0
70.422905 72.0
71.600342 396.0
71.733459 224.0
72.167358 88.0
72.365326 152.0
72.441544 208.0
72.4534 80.0
73.432556 164.0
76.322495 204.0
76.642784 300.0
77.511253 148.0
78.324722 144.0
78.74099 156.0
78.89119 96.0
79.686966 184.0
81.139832 168.0
81.240265 104.0
81.522163 204.0
81.872978 128.0
82.119904 192.0
82.491882 148.0
82.569633 112.0
82.85202 144.0
83.305573 112.0
84.265709 196.0
84.560127 220.0
85.016487 176.0
85.4244 156.0
85.905212 68.0
85.918129 140.0
86.021477 48.0
86.607666 128.0
86.696602 64.0
86.930275 76.0
86.993378 164.0
87.478584 148.0
88.146317 228.0
88.529816 220.0
88.749062 224.0
88.844719 124.0
88.992989 180.0
89.246658 164.0
89.440437 200.0
90.18174 180.0
90.3368 180.0
90.696594 220.0
91.051994 360.0
91.091293 144.0
91.269951 76.0
91.591591 156.0
91.864189 124.0
92.045509 104.0
92.064606 48.0
92.150566 164.0
92.688248 172.0
93.88784 224.0
94.796471 256.0
94.906967 116.0
95.038864 108.0
95.056328 92.0
95.594627 100.0
96.316025 136.0
97.067581 136.0
97.849625 228.0
98.595268 184.0
98.61306 200.0
99.631615 116.0
100.577538 204.0
101.033173 176.0
101.105209 168.0
101.261375 132.0
101.519913 148.0
101.991737 156.0
102.046021 212.0
102.466675 176.0
102.906372 140.0
103.05394 336.0
103.494766 156.0
103.579834 164.0
103.920425 152.0
104.055511 324.0
104.204689 76.0
104.477127 140.0
104.731583 124.0
105.031227 212.0
105.057968 220.0
106.698219 172.0
108.009819 120.0
109.158844 196.0
109.762741 264.0
109.789848 48.0
110.036079 180.0
110.629837 56.0
110.72406 188.0
110.757576 120.0
111.015373 100.0
112.353165 208.0
113.478348 220.0
115.012215 276.0
115.053802 752.0
115.234322 156.0
115.332626 196.0
115.829063 204.0
115.889053 68.0
115.919052 212.0
116.049477 412.0
116.616562 68.0
116.915512 128.0
116.960716 172.0
116.988701 108.0
117.057449 840.0
117.109291 84.0
117.171761 136.0
117.404564 56.0
117.473587 180.0
118.063652 308.0
118.704285 100.0
119.040649 148.0
119.201401 200.0
119.244865 164.0
119.279648 116.0
120.045067 172.0
120.377754 36.0
121.061691 252.0
121.909058 64.0
122.285141 156.0
122.586861 68.0
122.772049 204.0
123.3638 136.0
123.551781 108.0
123.886078 60.0
124.704903 132.0
124.922821 160.0
125.11866 268.0
125.439468 176.0
127.235916 108.0
127.53244 84.0
128.045441 144.0
128.062317 160.0
128.131042 184.0
128.1716 180.0
128.670074 148.0
129.042877 164.0
129.076874 220.0
129.976089 196.0
130.06424 7388.0
130.42865 168.0
130.600861 192.0
130.639526 40.0
130.771515 212.0
130.974167 172.0
131.022644 152.0
131.072784 5104.0
131.142395 88.0
131.24765 280.0
131.395905 92.0
131.436981 108.0
131.478058 60.0
131.577347 40.0
131.731506 140.0
131.827469 96.0
131.953186 68.0
132.045273 356.0
132.074188 300.0
132.184219 48.0
132.307816 188.0
132.708771 148.0
132.965698 112.0
133.052261 124.0
133.077408 320.0
133.220581 48.0
133.261932 84.0
133.662033 72.0
133.901459 172.0
134.054367 172.0
134.078857 180.0
134.390167 224.0
134.826614 156.0
135.050888 152.0
135.794403 196.0
135.875595 64.0
136.040375 172.0
136.470184 88.0
136.577164 192.0
137.787064 156.0
138.643494 112.0
139.063324 140.0
139.091492 176.0
139.48613 68.0
140.047333 144.0
140.25116 152.0
140.347824 180.0
140.699371 96.0
141.054825 188.0
142.034317 164.0
142.064209 1112.0
142.166946 48.0
142.212051 60.0
142.404373 56.0
142.573059 268.0
142.877426 180.0
143.072083 4188.0
143.203552 64.0
143.299576 64.0
143.403687 116.0
143.491898 172.0
143.520508 52.0
143.680313 92.0
144.021683 124.0
144.038406 152.0
144.077194 608.0
144.911621 36.0
145.05542 140.0
145.218475 144.0
145.732208 148.0
146.069992 88.0
146.093948 220.0
147.070862 352.0
148.080902 192.0
148.447861 188.0
148.678329 200.0
150.281982 152.0
153.655701 172.0
153.759338 192.0
154.624374 204.0
156.787598 164.0
157.54866 196.0
158.058182 524.0
158.532013 88.0
158.729507 92.0
158.782715 88.0
158.908142 136.0
158.950806 112.0
159.01329 164.0
159.066772 9308.0
159.115494 136.0
159.169189 148.0
159.337479 120.0
159.593842 108.0
159.77243 104.0
159.938507 116.0
159.996414 52.0
160.069016 844.0
160.185287 56.0
160.318832 68.0
160.41713 84.0
160.992416 88.0
161.05809 84.0
161.159134 56.0
162.305786 144.0
162.6026 120.0
163.314026 100.0
166.493576 240.0
166.891876 176.0
167.527603 52.0
167.906509 52.0
167.955521 180.0
172.072739 256.0
172.4189 60.0
173.081985 316.0
173.880325 112.0
174.090698 11052.0
174.200668 64.0
174.221695 48.0
174.262619 168.0
174.309708 80.0
174.455582 108.0
174.536179 84.0
174.587051 80.0
175.095932 1440.0
175.39801 180.0
175.825302 44.0
176.097733 196.0
176.197617 76.0
176.337677 100.0
176.3694 84.0
176.440765 128.0
176.53067 100.0
176.893158 100.0
185.270538 64.0
187.041138 36.0
194.854523 40.0
204.990677 76.0
217.107758 156.0
217.201614 152.0
229.889496 116.0
274.096497 88.0
275.819305 52.0
295.194763 76.0
374.651001 100.0
383.451172 92.0
386.896484 124.0
425.828278 60.0
445.37207 44.0
487.610504 120.0
544.612244 92.0
565.771667 56.0
738.813293 256.0
762.457458 56.0
763.557007 184.0
769.000549 152.0
801.20575 180.0
859.74231 136.0
885.914673 128.0
896.121704 200.0
929.713379 216.0
988.130188 200.0
1070.358643 100.0
1092.731567 196.0
1093.258057 176.0
1095.839355 176.0
1102.477661 92.0
1119.167969 200.0
1133.703979 164.0
1134.508301 176.0
1157.6875 124.0
1166.392578 140.0
1166.555664 128.0
1188.713013 140.0
1194.030396 176.0
1199.71814 132.0
1213.025879 140.0
1223.557739 200.0
1229.39209 200.0
1232.010498 168.0
1244.807373 160.0
1249.889771 184.0
1251.001831 144.0
1261.626343 88.0
1262.071777 88.0
1264.215088 112.0
1272.636475 172.0
1276.139404 84.0
1278.60083 172.0
1295.108398 120.0
1299.366089 180.0
1305.17749 188.0
1305.529785 180.0
1307.96167 204.0
1315.184448 180.0
1316.144653 96.0
1316.397339 84.0
1317.047363 232.0
1325.925293 156.0
1330.117676 180.0
1330.5896 172.0
1331.707886 60.0
1334.643921 200.0
1336.375122 180.0
1339.192383 200.0
1339.98645 144.0
1342.253296 148.0
1346.405762 168.0
1346.544556 180.0
1346.727173 148.0
1348.919312 176.0
1352.510986 168.0
1353.836182 172.0
1357.669067 84.0
1365.262939 164.0
1366.999023 240.0
1375.674316 172.0
1377.505737 108.0
1378.49585 192.0
1381.342407 184.0
1384.265991 80.0
1384.902954 124.0
1395.723389 184.0
1398.044434 156.0
1402.602661 256.0
1404.675659 96.0
1419.799805 156.0
1419.9198 108.0
1420.279785 244.0
1429.189941 224.0
1434.077637 80.0
1439.52478 148.0
1441.881836 132.0
1443.272827 52.0
1448.373779 128.0
1448.464722 156.0
1452.087891 132.0
1467.967651 132.0
1469.073608 168.0
1470.309814 204.0
1471.65332 180.0
1473.601074 56.0
1474.518066 180.0
1483.887817 164.0
1490.719482 204.0
1490.796387 168.0
1502.199585 180.0
