>compound Natamycin
>formula C33H47NO13 
>ionization [M+H]+
>parentmass 666.313
#inchi InChI=1S/C33H47NO13/c1-18-10-8-6-4-3-5-7-9-11-21(45-32-30(39)28(34)29(38)19(2)44-32)15-25-27(31(40)41)22(36)17-33(42,47-25)16-20(35)14-24-23(46-24)12-13-26(37)43-18/h3-9,11-13,18-25,27-30,32,35-36,38-39,42H,10,14-17,34H2,1-2H3,(H,40,41)/t18-,19-,20+,21+,22+,23-,24-,25+,27-,28+,29-,30+,32+,33-/m1/s1
#inchikey NCXMLFZGDNKEPB
#Ion_Source LC-ESI
#Instrument qTof
#Compound_Source Isolated
#PI Sirenas
#Data_Collector Ed Esquenazi 
#Scan -1
#Precursor_MZ 666.313
#ExactMass 0.0
#Charge 1
#CAS_Number N/A
#Pubmed_ID N/A
#Smiles N/A
#INCHI_AUX N/A
#Library_Class 3
#SpectrumID CCMSLIB00000004693
#IonMode Positive
#UpdateWorkflowName UPDATE-SINGLE-ANNOTATED-BRONZE
#LibraryQualityString Bronze
#TaskID d19310cd93df49b68e9fcbec27720eb5
##Scan# 2
#SpectrumFile Natamycin.mgf
#LibraryName fda_library.mgf
#MQScore -1
#Organism fda_library
#TIC_Query 0
#RT_Query -1
#MZErrorPPM -1
#SharedPeaks 0
#MassDiff 0
#LibMZ -1
#SpecMZ 666.313
#SpecCharge 0
#internalFilename spec-00000.mgf

>collision 10
104.07032 30.02083
107.046509 18.58333
107.086052 98.258362
115.049355 26.29504
119.084106 100.770103
122.045609 33.224812
127.044388 17.527781
131.082596 26.805599
133.063461 28.050831
133.103836 25.91667
137.056824 10.5464
139.036285 41.780949
143.082245 59.811062
145.103027 11.95069
145.151779 4.333333
145.432724 4.508523
146.081818 76.981934
155.083801 10.31579
157.096146 46.310329
161.056244 3.251645
163.035309 10.26654
163.073593 31.40736
164.090744 24.33021
171.111511 46.00325
173.133362 29.839781
174.040131 2.389205
174.201385 9.0
175.112671 46.876041
181.100266 10.31667
183.075775 40.333328
185.134521 93.677711
189.357574 1.265625
190.052429 4.01875
195.082626 14.75189
197.128113 37.724739
197.202011 4.517857
197.301605 12.88297
199.079819 26.92042
201.123535 123.258797
202.090363 30.124041
207.063019 59.047112
207.116043 17.0928
209.383545 3.445313
209.609558 4.066576
211.144058 17.88431
215.065002 16.301029
217.089935 37.844528
223.150726 14.27164
225.085907 10.5625
225.119186 22.444639
227.137009 6.992457
227.283356 3.766544
227.372498 6.790179
229.086807 17.831631
233.083267 4.449013
233.59404 3.001359
241.189072 3.751359
243.10498 13.40385
243.135452 304.058685
243.159927 5.55625
243.193375 1.611607
249.083862 7.722322
249.121094 23.78698
251.139664 48.436741
251.90033 5.802631
253.161194 29.90308
257.14502 9.035156
262.132599 7.423611
267.133087 12.70089
272.135345 16.13298
277.06427 9.879032
278.049561 8.55388
279.088989 6.854167
287.120697 10.66667
291.142151 6.774457
294.15097 15.13004
295.079254 22.50034
301.079254 7.847826
303.092743 7.752315
311.160065 77.209213
313.088806 30.53125
313.143829 32.509411
318.152832 28.6717
319.73175 1.8125
321.141968 7.681818
323.12793 9.184028
325.119232 6.857143
328.507263 17.797791
329.167694 37.966599
330.251678 19.415039
339.156158 14.2752
339.841583 7.270833
345.168762 107.343597
345.256287 2.071023
347.120789 11.83104
349.0065 6.099185
350.141022 2.752083
353.442688 4.251359
357.173431 29.6632
363.162659 43.808449
365.143982 19.87812
365.175903 18.78635
367.117401 17.003679
379.203552 30.9424
379.240875 1.265625
381.159668 5.7625
389.14682 15.17308
398.516693 5.252404
403.184631 15.83794
405.178284 31.684139
405.210297 19.21307
413.171722 9.690476
414.310211 3.527778
423.207886 29.703131
449.198364 108.415001
467.204468 145.482407
467.57724 4.775202
476.001953 11.33224
482.193512 4.508929
482.292572 8.799632
485.211029 144.946304
485.476044 16.039101
485.529724 12.57136
485.713776 2.071023
486.258392 8.259072
503.221893 80.656647
503.297241 4.257813
503.688171 12.85208
503.848175 3.760417
630.286377 17.38612
648.314148 37.95018
861.535217 39.112358
1484.223389 6.008523
