>compound Rifapentine
>formula C47H64N4O12 
>ionization [M+H]+
>parentmass 877.4593499400905
#inchi InChI=1S/C47H64N4O12/c1-24-13-12-14-25(2)46(59)49-37-32(23-48-51-20-18-50(19-21-51)31-15-10-11-16-31)41(56)34-35(42(37)57)40(55)29(6)44-36(34)45(58)47(8,63-44)61-22-17-33(60-9)26(3)43(62-30(7)52)28(5)39(54)27(4)38(24)53/h12-14,17,22-24,26-28,31,33,38-39,43,48,53-55,57H,10-11,15-16,18-21H2,1-9H3,(H,49,59)/b13-12+,22-17+,25-14-,32-23+/t24-,26+,27+,28+,33-,38-,39+,43+,47-/m0/s1
#inchikey RISDZDVHYCURHD
#Ion_Source LC-ESI
#Instrument qTof
#Compound_Source Isolated
#PI Sirenas
#Data_Collector Ed Esquenazi 
#Scan -1
#Precursor_MZ 877.46
#ExactMass 0.0
#Charge 1
#CAS_Number N/A
#Pubmed_ID N/A
#Smiles N/A
#INCHI_AUX N/A
#Library_Class 3
#SpectrumID CCMSLIB00000004849
#IonMode Positive
#UpdateWorkflowName UPDATE-SINGLE-ANNOTATED-BRONZE
#LibraryQualityString Bronze
#TaskID d19310cd93df49b68e9fcbec27720eb5
##Scan# 6
#SpectrumFile Rifapentine.mgf
#LibraryName fda_library.mgf
#MQScore -1
#Organism fda_library
#TIC_Query 0
#RT_Query -1
#MZErrorPPM -1
#SharedPeaks 0
#MassDiff 0
#LibMZ -1
#SpecMZ 877.46
#SpecCharge 0
#internalFilename spec-00000.mgf

>collision 10
100.359161 3.933333
101.058624 268.4104
101.296616 18.93919
102.233566 27.000429
103.052071 36.31284
103.203171 3.342592
104.475784 14.81037
104.486511 18.00952
104.504288 9.04344
104.54879 9.082317
104.674202 11.44599
104.819481 10.00833
104.870918 4.366667
105.017036 3.0
105.032005 16.6674
105.069801 3616.592041
105.116829 36.24139
105.131149 5.022059
105.145195 12.95417
105.159683 8.740741
105.259598 7.399193
105.29258 16.07626
105.298996 6.615
105.315689 13.39726
105.345276 4.721491
105.368965 7.148809
105.385849 10.16071
105.413223 11.9881
105.455299 12.95833
105.534615 48.33691
105.678566 8.083333
105.852921 9.02671
105.971497 9.1875
106.077827 56.73402
106.462456 26.57102
106.480217 10.05797
106.494576 4.340278
106.548569 4.8
106.592094 3.555556
106.620644 42.31245
106.645638 10.56048
106.667358 9.703704
106.680328 27.56793
106.684502 24.148809
106.693771 16.748871
106.710091 3.691667
106.731499 13.34028
106.741409 48.120998
106.754982 7.160088
106.768623 14.0947
106.774788 11.21333
106.782059 6.840278
106.821526 6.011364
106.846893 10.8375
106.892914 12.85312
107.049652 107.912201
107.08564 25029.609375
107.130348 180.013306
107.144691 118.519699
107.163368 21.34234
107.170845 26.1938
107.181732 66.857727
107.19088 96.25956
107.2034 23.770121
107.214905 12.93149
107.224815 45.650311
107.246727 67.644669
107.252625 27.50877
107.267372 13.79167
107.278374 17.606819
107.286659 82.429588
107.302048 13.06833
107.308334 18.14822
107.334976 79.736847
107.347153 11.6875
107.354652 19.04167
107.361267 6.306159
107.378456 38.64365
107.390381 10.49342
107.407509 34.37307
107.418602 12.82353
107.430077 9.463542
107.440826 14.35
107.46595 17.08333
107.4729 21.54528
107.487747 14.59375
107.498566 14.19048
107.516937 30.396351
107.523811 7.668478
107.531029 10.02671
107.548363 7.598684
107.556694 11.57615
107.574326 7.685185
107.584122 8.408334
107.593254 5.041667
107.609879 44.788502
107.664978 64.184273
107.780067 14.01799
107.924118 38.202412
107.949852 13.47619
108.018433 12.00758
108.056335 91.108093
108.146988 8.708333
108.272133 27.49555
108.308296 17.95402
108.326149 28.712219
108.361832 10.89744
108.442032 12.68519
108.464981 123.5429
108.484993 38.530762
108.512146 20.00107
108.517975 8.382936
108.532127 19.75132
108.589592 6.081667
108.645332 12.66987
108.652809 15.79012
108.681274 5.415
108.705864 4.115741
108.721176 13.07295
108.800995 13.1974
108.862694 17.00877
108.895996 5.703947
108.912567 12.66793
108.942604 6.564103
108.992409 5.083333
109.02626 144.736694
109.064613 11413.469727
109.100868 10074.5
109.145706 210.717697
109.161072 57.331711
109.210602 24.124029
109.216316 36.365131
109.229805 18.768749
109.240517 3.678571
109.259415 24.23184
109.266724 83.410011
109.306458 26.24766
109.340233 30.06719
109.35144 4.666667
109.368813 13.68254
109.382126 10.75812
109.39698 31.68313
109.41523 22.497971
109.43396 20.541531
109.446922 7.013889
109.500259 52.462269
109.545471 10.97024
109.593788 14.71354
109.611473 5.695513
109.618996 13.00076
109.632286 8.12037
109.649101 27.929079
109.677223 44.10778
109.706429 14.34667
109.749069 22.9974
109.787338 10.29688
109.876869 37.97131
110.126976 14.43207
110.191589 6.125
110.274399 6.013889
110.297516 5.049603
110.326752 8.088889
110.385254 11.15789
110.437332 20.22283
110.516693 19.20455
110.532608 17.405319
110.559204 4.125
110.593658 4.408333
110.64193 17.054489
110.661522 24.91313
110.708664 7.680555
110.729477 6.001984
110.743713 16.099449
110.750893 8.635753
110.762016 11.43622
110.777534 9.711021
110.805954 4.002778
110.83757 4.6
110.8573 15.80064
110.909706 3.6
110.928246 32.21291
111.043404 873.325989
111.080055 6708.816895
111.112968 408.345093
111.121849 109.742996
111.146347 30.831739
111.179619 10.19853
111.19175 13.95066
111.20903 27.446899
111.223801 11.37745
111.231941 18.5
111.262131 24.02632
111.281944 11.68889
111.299721 25.38294
111.318649 63.803371
111.336456 20.372021
111.375488 3.345238
111.381645 6.025641
111.411018 6.696428
111.422081 20.000931
111.477242 5.09375
111.504738 26.38283
111.532692 13.78125
111.694099 9.063725
111.703987 14.01389
111.774841 10.79167
112.011101 10.29688
112.036186 7.605556
112.129189 30.646299
112.186195 14.98994
112.360359 9.267858
112.443565 12.84028
112.474663 7.755435
112.482765 5.121212
112.515343 8.015873
112.838074 14.38782
113.059822 1184.322998
113.095322 445.143188
113.147247 3.333333
113.184258 6.337963
113.339676 10.46354
113.361977 10.03947
113.449318 14.60556
113.478027 7.280303
113.495361 7.130208
113.754944 5.668333
114.405197 27.157049
114.424141 21.096889
115.038635 315.329895
115.068558 12.39096
115.076134 179.879303
115.202888 13.34167
115.513016 6.395833
117.069077 638.327576
117.462982 4.013889
117.476791 8.0
118.005447 17.246981
118.33223 4.013889
118.371384 3.75
118.466774 17.252081
118.553879 11.69551
118.568787 13.43561
118.648972 36.510159
118.823799 17.56579
118.872482 14.6875
118.993683 8.0
119.046089 93.971588
119.085419 5963.77002
119.132744 31.239479
119.170364 22.233089
119.203842 37.589989
119.223434 17.22349
119.230263 9.8
119.250145 45.10717
119.265831 23.451799
119.285301 16.049999
119.29747 4.061275
119.304756 11.10256
119.338951 18.075001
119.373474 67.14473
119.409515 16.682541
119.42498 7.341667
119.474464 32.99107
119.482529 14.66667
119.528008 4.226852
119.563332 11.59259
119.594017 3.413462
119.701096 17.753469
119.7201 12.74242
119.765305 13.75512
120.058731 46.78009
120.315063 6.42803
120.356148 4.355392
120.405769 7.671297
120.421021 10.92064
120.440125 10.60093
120.459213 19.21562
120.501221 9.813725
120.524345 17.35088
120.545204 53.877541
120.569969 6.667735
120.585953 23.14286
120.604683 20.117029
120.641426 22.527571
120.657875 3.35
120.682251 14.37769
120.707825 10.5307
120.716492 8.401667
120.760323 9.340278
120.783722 8.461957
120.826042 11.51022
120.998184 6.75
121.027428 185.130798
121.06443 5099.743164
121.100708 10360.379883
121.147461 37.333679
121.163887 9.791667
121.171539 24.360821
121.207901 21.65173
121.222176 23.578251
121.235565 18.67647
121.246964 16.01071
121.254585 20.70076
121.263863 28.523809
121.276672 37.00528
121.291145 23.051929
121.301308 20.68873
121.311508 10.29688
121.338081 40.637981
121.353546 40.4189
121.37059 9.041667
121.389313 26.75559
121.418106 5.09375
121.438896 32.67392
121.446777 9.1875
121.454247 14.51062
121.46067 4.816667
121.475075 40.711811
121.501732 37.84985
121.528412 6.387821
121.567146 15.4998
121.578995 26.733891
121.598907 8.030556
121.616829 19.64209
121.630424 12.36742
121.657967 26.206051
121.670364 61.129478
121.710358 48.451481
121.868416 6.761905
121.931793 18.375
122.048988 7.666667
122.188217 10.48214
122.202858 19.66865
122.241524 7.339285
122.249199 34.570671
122.310745 11.57143
122.332802 17.030979
122.341194 22.347601
122.350533 44.520599
122.370087 22.36779
122.397697 25.44524
122.409401 18.28861
122.419014 20.901711
122.436279 25.39677
122.447403 97.861977
122.462746 98.966187
122.489616 24.21505
122.506409 46.287449
122.522308 47.736389
122.552986 4.408333
122.56839 5.430555
122.577728 20.69648
122.587654 11.41987
122.599197 14.44583
122.616684 27.377781
122.639648 8.291667
122.684418 6.683333
122.72924 10.8447
122.745949 42.80452
122.757156 20.339689
122.787041 17.42477
122.807297 7.486111
122.872864 20.851851
122.887558 7.166667
123.043671 357.5065
123.080414 31972.919922
123.115395 2634.829102
123.184441 14.14468
123.196632 24.075251
123.2099 62.012009
123.223228 47.440109
123.247803 25.8141
123.253403 69.852364
123.273712 134.5
123.29538 29.189529
123.302467 13.35119
123.31842 72.346718
123.329918 31.99017
123.338181 15.83841
123.36866 58.941872
123.377419 23.964291
123.393433 58.990662
123.409813 120.573601
123.430885 45.569839
123.475159 16.33415
123.486107 17.29611
123.503174 19.59375
123.509911 5.522727
123.520531 40.622311
123.531853 54.477329
123.564087 19.67174
123.575928 58.06303
123.601944 28.93631
123.630363 51.693111
123.646774 44.2178
123.660789 5.342593
123.66748 12.85201
123.68409 19.662979
123.691795 20.110359
123.733078 27.353571
123.761406 8.333333
123.783432 55.16563
123.841927 16.946699
123.850685 21.1276
123.982094 8.0
124.008598 27.87121
124.112411 903.255188
124.222069 18.435301
124.244331 13.53488
124.340385 35.761398
124.358322 13.65355
124.484039 47.95237
124.625908 20.334181
124.63372 4.355392
124.662483 4.518939
124.673447 13.33333
124.682602 50.44873
124.711403 9.797101
124.726952 14.85057
124.761917 11.40221
124.975731 5.04529
125.058723 945.793884
125.095757 9325.917969
125.144905 109.434097
125.162247 18.667789
125.191452 34.622639
125.203926 21.63158
125.214149 25.32065
125.23642 8.102564
125.292213 55.83989
125.341621 15.78998
125.353699 12.66912
125.380524 8.700757
125.389549 14.66793
125.407936 24.403099
125.425079 9.798913
125.442863 8.523648
125.460297 24.37184
125.469009 20.387819
125.502419 19.187149
125.534531 19.115721
125.571678 11.51597
125.599609 11.11574
125.614357 10.44537
125.625618 30.05266
125.750511 6.453432
125.814674 13.55648
125.98114 4.025
126.164734 14.04891
126.473656 9.386905
126.598824 3.413462
126.645821 18.07547
127.035614 141.839005
127.050293 27.388889
127.07547 288.854889
127.110985 169.434296
127.186676 8.024224
127.488953 17.592239
127.62973 23.68174
128.30336 9.733334
128.741135 5.346264
129.05249 88.680702
129.068069 135.641602
129.142212 40.138519
129.432861 6.880952
129.762833 38.198582
129.888474 15.34295
130.077484 242.305801
130.41626 11.04003
130.861603 3.011905
130.973145 16.480391
131.052704 32.34444
131.084717 920.333679
131.135498 4.259615
131.295761 10.72854
131.312241 9.061275
131.343582 8.337501
131.391449 6.335784
131.407379 17.20937
131.426086 15.60606
131.838654 15.5328
132.062286 11.6796
132.094009 47.075001
132.358261 16.17778
132.378235 9.334596
132.386246 13.05037
132.446289 4.666667
132.464035 14.70946
132.494873 17.25
132.508026 13.93889
132.542511 8.333333
132.567902 15.93426
132.746735 11.66667
133.064667 1129.241943
133.100693 6523.213867
133.147903 20.497971
133.160019 9.829301
133.166977 24.672041
133.185287 10.92045
133.217697 25.339911
133.228165 6.363636
133.238235 22.17342
133.292419 6.081667
133.31192 66.554382
133.330826 9.716269
133.352753 10.64209
133.36441 6.069445
133.416962 7.028153
133.436752 31.82818
133.446259 42.401459
133.466644 19.45833
133.509583 26.61721
133.517441 7.472222
133.577805 5.375
133.610031 10.73684
133.638062 9.527778
133.67897 7.481667
133.734787 18.84009
134.024567 10.75
134.072754 3.335526
134.247269 9.523551
134.263306 56.73967
134.275772 10.27222
134.294281 6.25
134.302475 5.840278
134.330688 8.341666
134.347153 5.520833
134.363922 9.440476
134.379013 16.12114
134.391129 6.037037
134.403275 7.757883
134.417755 16.38636
134.427734 86.135872
134.490021 20.67915
134.503403 20.210251
134.521301 9.704545
134.528442 7.291667
134.547928 57.357342
134.563126 44.721699
134.578247 4.482143
134.610764 19.68796
134.774582 8.732527
134.858246 22.07
134.911926 8.442204
135.079987 13603.799805
135.116409 6960.27002
135.162628 106.432602
135.174728 22.008329
135.190887 3.002778
135.211136 79.906372
135.221405 74.789642
135.235016 33.75983
135.2435 20.67593
135.25386 27.8694
135.286636 43.1171
135.296112 15.675
135.312119 44.373871
135.322418 32.853451
135.333435 38.119701
135.360825 34.698151
135.377167 10.0375
135.384491 19.776011
135.39502 11.215
135.406128 17.050211
135.447632 10.79891
135.457199 10.375
135.47673 34.815788
135.49826 70.901451
135.512283 32.441559
135.525497 111.094299
135.550461 25.14286
135.609482 12.36111
135.617966 13.91667
135.633179 20.71266
135.646866 19.79273
135.677673 24.165079
135.688431 5.367424
135.840881 97.299362
135.928177 18.001341
136.186081 16.67111
136.239365 19.963051
136.267227 19.04167
136.30246 13.69231
136.329483 13.79953
136.370621 105.736099
136.397949 17.89167
136.419678 62.578678
136.449173 26.060499
136.473373 28.700439
136.558548 10.11111
136.565659 3.375
136.602463 18.115391
136.640015 9.8
136.679459 10.85799
136.71373 48.078468
137.059158 1559.729004
137.095627 13182.769531
137.131607 2902.599121
137.183075 22.85689
137.197311 57.16151
137.230881 83.742867
137.241348 14.45833
137.259781 15.51852
137.270172 7.44079
137.31134 78.847366
137.335083 12.4563
137.342636 9.107456
137.369995 37.42725
137.388855 21.603331
137.400055 28.388371
137.415604 59.964821
137.433746 10.29688
137.447083 25.935579
137.468842 13.86111
137.483414 34.222778
137.490173 7.656609
137.502258 15.00877
137.56778 21.256201
137.576019 21.79871
137.608353 16.023439
137.629089 8.081897
137.650818 86.47641
137.669571 6.33477
137.685135 13.57857
137.764374 29.5317
137.775742 5.669445
137.800217 4.340278
138.000961 9.314103
138.044022 10.64103
138.114761 85.133263
138.250778 12.89286
138.267319 15.95833
138.282135 5.564815
138.326614 9.960366
138.373672 10.94293
138.37999 9.314103
138.400635 13.07576
138.435059 13.7219
138.474869 9.05235
138.483398 16.790211
138.491241 19.72891
138.54039 6.001263
138.572662 8.683333
138.677597 6.75
138.721497 8.053572
138.764679 25.827391
138.828995 10.59259
138.838669 5.694445
138.854385 8.297619
139.07518 5227.937012
139.111511 1529.281006
139.163483 17.466669
139.175827 15.11538
139.184006 6.755556
139.211868 6.370614
139.226776 10.75521
139.245316 19.79545
139.270813 16.85965
139.296402 16.207251
139.322296 10.74856
139.335434 3.375
139.344116 23.33737
139.352631 4.001812
139.372864 9.753472
139.397507 9.063492
139.41394 9.737037
139.42421 18.455391
139.484222 10.08854
139.50708 3.520833
139.526855 9.968915
139.549469 25.008329
139.651886 14.15648
139.693314 10.48611
139.857925 10.17754
140.014862 15.49167
140.2202 4.341667
140.257278 6.482143
140.343811 8.491228
140.426254 14.01449
140.811279 7.653986
140.898682 19.29167
140.951981 19.42178
141.089951 1018.807007
141.135666 87.720238
141.194092 14.07716
141.305725 14.37143
141.367767 10.3555
141.794128 15.00901
142.0755 141.890793
142.411835 11.33426
142.494507 18.0
142.725235 6.136111
142.752686 4.033333
143.06633 28.612249
143.084137 830.162292
143.243576 8.4375
143.276917 6.146739
143.296753 19.58534
143.314362 4.774123
143.331039 14.04025
143.405899 13.46261
143.498734 14.38043
143.877151 5.340278
144.175034 12.78947
144.190277 16.667521
144.358093 10.66667
144.440842 15.36149
144.508347 4.6875
144.533035 6.728535
144.572784 6.0
144.590347 3.760417
144.700394 16.80694
144.758896 15.47141
145.100769 7996.591797
145.152008 82.830231
145.169464 42.435459
145.192688 23.30876
145.205673 46.332432
145.216568 35.65567
145.236923 25.56019
145.245636 14.40653
145.253326 18.35677
145.274277 6.805555
145.324173 17.058781
145.345703 25.010099
145.372589 57.50584
145.417709 16.16379
145.523346 8.041667
145.537857 43.976311
145.555344 52.250278
145.579773 23.902109
145.593155 9.442204
145.723328 17.405001
145.774384 11.03716
145.972473 6.906746
146.229614 13.3795
146.257019 15.04748
146.30368 16.747129
146.324112 7.678572
146.339691 77.294144
146.380768 80.875092
146.403183 39.635029
146.429413 22.6901
146.439056 6.98077
146.475967 6.75
146.506927 8.775641
146.601151 5.15
146.638123 6.333333
146.682556 11.79688
146.718185 8.127748
146.855164 15.21774
146.97847 4.720238
147.036514 15.29167
147.044937 10.56522
147.079697 1578.276001
147.116119 12027.099609
147.167084 124.8965
147.184418 36.86245
147.217636 22.44141
147.234833 6.671568
147.246841 27.36006
147.264954 15.41974
147.284561 79.889542
147.30629 19.66667
147.320786 12.68333
147.35762 8.081897
147.417389 27.430269
147.428864 24.726191
147.440155 47.908718
147.454422 11.0
147.487015 38.584721
147.5056 21.008789
147.533768 30.036169
147.545258 16.686371
147.569016 9.047619
147.599091 9.672222
147.607376 36.24279
147.638245 3.541667
147.653244 3.490385
147.699554 51.182049
147.767593 11.26667
147.806335 14.38043
147.873718 3.926282
148.137543 35.68055
148.2285 9.789634
148.299622 7.773809
148.347321 17.632401
148.437225 17.853809
148.4785 10.08333
148.499573 16.523809
148.571777 6.700269
149.05896 1333.666992
149.095993 2395.908936
149.131714 2113.61499
149.17308 11.37061
149.183029 6.673611
149.198563 5.088768
149.210648 5.458333
149.226501 10.95833
149.243958 10.04845
149.279083 15.97201
149.313721 15.82996
149.33461 3.75
149.387054 8.724999
149.396362 18.76359
149.416901 3.722222
149.459351 7.070402
149.492752 17.65789
149.557251 7.605556
149.616211 4.458333
149.694031 5.333333
149.703415 10.08333
149.773544 18.94792
149.8022 17.86857
149.829269 3.791667
149.861435 5.592949
149.973373 9.32545
150.047028 23.16959
150.156403 33.43261
150.173798 22.222219
150.184418 20.082319
150.195572 84.480133
150.208633 17.342051
150.223801 21.625
150.237 65.25045
150.24704 21.03841
150.261108 37.546719
150.278839 35.323528
150.287521 66.351402
150.295273 54.231339
150.306763 67.491768
150.331985 85.16571
150.345825 26.066669
150.356461 60.389671
150.373352 91.319649
150.387146 19.5375
150.414215 32.041672
150.423828 75.912331
150.435318 15.48
150.45723 22.375
150.465454 9.708333
150.479019 33.174461
150.504227 166.239197
150.528397 97.914726
150.558884 46.008869
150.573608 18.5
150.589218 33.899101
150.610367 25.1
150.639496 45.713428
150.652603 16.340691
150.685287 43.071812
150.715668 19.293699
150.772171 18.085711
150.819275 12.5
150.843338 15.00694
150.888031 19.711109
150.910172 20.832939
150.93602 12.09339
150.956192 20.637779
151.050522 25.1201
151.075409 92541.609375
151.121582 3739.846924
151.395416 190.854004
151.403961 35.531609
151.42601 96.883926
151.436234 41.785259
151.460983 198.931305
151.479813 48.72459
151.514908 96.889236
151.550873 38.653728
151.562683 16.52758
151.571503 50.647411
151.590683 14.03241
151.599823 110.099503
151.619949 58.770939
151.646317 79.759109
151.664474 101.992401
151.674835 23.70928
151.68988 90.39328
151.703079 77.106041
151.713409 10.92064
151.736282 54.828232
151.748611 25.10569
151.762756 94.896782
151.778931 19.30472
151.792526 20.981979
151.802612 31.25774
151.825836 93.452042
151.848358 21.774191
151.859665 58.296101
151.877014 18.956249
151.937363 24.88258
151.976349 28.81905
152.013046 50.537041
152.129883 2158.846924
152.197632 6.421297
152.224625 63.162491
152.250717 40.32008
152.27597 63.716751
152.290756 27.539101
152.303421 59.39975
152.313248 3.597581
152.323624 52.706829
152.34407 27.658119
152.364624 150.545593
152.408279 16.36458
152.438461 26.13806
152.447021 9.033603
152.518524 36.347721
152.553101 19.388439
152.568542 77.559181
152.622131 25.93915
152.740631 94.47171
152.752731 19.80064
152.79422 14.69823
152.902679 17.016029
152.960526 12.39782
153.000061 15.25493
153.005875 13.67188
153.02739 21.41638
153.049103 16.00079
153.060806 181.178101
153.090469 16925.119141
153.137985 8175.403809
153.189346 33.154758
153.205093 64.702316
153.25531 81.7854
153.284973 83.378128
153.296219 24.395201
153.306839 39.690689
153.31572 36.688721
153.324585 21.65661
153.333389 30.724541
153.347931 52.49794
153.380554 5.408333
153.404282 38.0
153.416824 18.18561
153.435516 30.82843
153.447968 119.708603
153.46138 10.30682
153.469543 46.776169
153.485641 16.560869
153.507355 16.111111
153.520035 15.58712
153.535217 17.81897
153.575073 6.231482
153.603256 7.002778
153.613297 4.363636
153.623276 34.36652
153.645142 51.456982
153.663483 17.039221
153.725571 16.56547
153.898178 20.00556
153.959686 12.32018
154.17865 8.061869
154.187302 15.66722
154.213364 18.13611
154.222137 20.738331
154.230499 6.401515
154.26506 6.669117
154.293228 11.06127
154.327148 14.62069
154.401443 36.49305
154.487869 14.04224
154.509186 88.51413
154.528748 6.458333
154.538895 33.99575
154.666885 10.4359
154.701233 35.16077
154.729004 62.87587
154.796997 7.696428
154.814301 13.01515
154.827179 8.669118
154.855682 9.967105
154.891464 10.89015
154.930237 6.818182
155.069565 425.972809
155.106171 5394.224121
155.1539 16829.560547
155.206406 166.108902
155.22438 60.313271
155.250092 72.893173
155.273682 93.850273
155.298141 67.238708
155.312744 18.0
155.321228 40.625038
155.334091 37.652809
155.355591 52.506062
155.387527 19.81855
155.397903 14.6
155.40979 75.378281
155.449738 68.078758
155.484787 41.739182
155.529648 21.32432
155.542358 26.9585
155.5746 63.691269
155.596161 8.816667
155.6185 22.90645
155.656113 24.35413
155.6642 31.789141
155.684555 25.359209
155.716064 7.108871
155.731369 37.086201
155.785217 12.67045
155.844955 23.156481
155.924408 6.761905
156.018631 4.673077
156.189514 20.347281
156.354996 20.96056
156.368866 3.675
156.428726 11.74679
156.459061 6.336538
156.467896 17.66667
156.528763 19.788361
156.559189 16.337721
156.611526 8.680555
156.753387 7.84375
156.772812 14.18827
156.80751 4.047619
156.916687 3.458333
156.97818 20.79594
157.060257 17.00658
157.173218 4.034091
157.182373 4.681667
157.230423 12.44983
157.278336 11.34848
157.300522 14.35897
157.330704 8.031566
157.439819 6.520061
157.45256 5.231482
157.486115 14.64103
157.510284 20.26722
157.519836 6.926282
157.572296 18.480261
157.631927 7.843137
157.6633 10.55254
157.851089 8.888888
158.071793 12.89583
158.188583 20.375759
158.204636 7.702587
158.239548 4.680556
158.340317 6.335526
158.414261 16.129271
158.476135 24.410709
158.577698 15.24306
158.698868 15.10887
158.782761 19.48237
158.80246 6.25926
158.835281 6.897436
158.931931 3.700758
159.019608 9.920045
159.078995 895.597778
159.116119 7253.950195
159.172119 57.143051
159.195099 21.72333
159.226486 6.354167
159.236404 11.12037
159.251236 40.07317
159.32309 36.643681
159.352509 25.419359
159.365158 13.00126
159.385193 21.39246
159.410248 6.004902
159.418701 41.18911
159.440811 5.510965
159.479385 15.98058
159.51564 12.86607
159.530762 9.049603
159.551056 27.78503
159.561371 32.956848
159.590393 7.334677
159.616318 11.72917
159.636032 9.658731
159.717819 8.674243
159.731689 33.254921
159.805817 3.736111
159.858994 15.27161
159.892517 15.89352
159.995529 3.185606
160.026306 7.148148
160.15686 4.15
160.192932 30.818529
160.219299 18.531879
160.235641 19.84775
160.29628 10.75556
160.316376 24.70899
160.342789 5.334677
160.36055 24.8939
160.395645 19.00301
160.408875 8.700269
160.441406 5.510417
160.531998 17.552271
160.602295 5.898148
160.612381 13.14826
160.655579 37.695621
160.770538 9.739865
160.938751 26.440479
160.981506 12.82456
161.013077 11.01965
161.055084 101.047897
161.09549 14316.490234
161.13118 2131.451904
161.166733 62.265411
161.185547 30.73489
161.202942 27.229811
161.216888 84.029404
161.238266 6.705246
161.263672 65.828644
161.274124 20.730339
161.283737 61.436089
161.292877 35.920189
161.305389 19.44537
161.323044 80.92485
161.338776 29.867161
161.349014 33.42421
161.366608 10.0732
161.375076 51.76923
161.407211 28.222219
161.453369 45.354851
161.466492 27.065359
161.493484 54.525459
161.518433 47.891029
161.551361 52.491169
161.568939 38.665901
161.618423 8.407407
161.680344 17.014669
161.700256 40.869888
161.728348 37.04089
161.741241 6.558333
161.832611 28.723391
161.864029 17.244049
161.884521 34.132332
161.93338 34.372799
161.971771 20.4494
162.035248 7.136111
162.064362 44.793652
162.181641 31.55423
162.246689 57.7075
162.30336 21.00119
162.339767 52.10046
162.359619 25.5173
162.389221 19.163891
162.415527 18.00079
162.431961 26.41737
162.456329 140.302399
162.4897 22.783159
162.510803 65.404266
162.523254 21.48156
162.570709 21.684719
162.591904 27.9298
162.610626 5.7
162.620468 37.499062
162.659424 13.66667
162.672256 27.453899
162.71051 23.27717
162.725983 14.05192
162.736755 24.311199
162.763092 20.57143
162.784851 27.659389
162.80101 64.269989
162.893082 41.855171
162.965729 8.348333
163.002289 31.375
163.016159 43.310741
163.034866 5.013889
163.05455 7.337719
163.073975 659.473206
163.111618 44344.019531
163.251358 96.722031
163.284103 132.654205
163.318573 114.411903
163.336899 39.927078
163.354065 83.228882
163.36734 46.4188
163.377594 210.652496
163.393173 93.705551
163.407166 39.24242
163.418518 103.789703
163.43483 23.67581
163.481995 42.38942
163.498978 83.694061
163.511459 60.785099
163.539001 95.859444
163.554062 31.95982
163.569489 7.30368
163.601212 77.984512
163.614258 14.17647
163.631592 49.777111
163.641464 13.00333
163.655197 32.888969
163.672913 47.75922
163.701141 50.626011
163.721649 52.2728
163.73494 13.47704
163.750198 7.757576
163.762939 28.51111
163.773071 86.197472
163.782608 40.70084
163.942444 45.923382
163.990524 23.94726
164.207138 8.049797
164.226227 86.396927
164.239685 6.533333
164.379608 41.469509
164.44812 20.4692
164.827377 4.8
164.839569 16.10471
164.891891 55.00745
164.979263 12.0049
165.048492 31.966261
165.090775 1010.109009
165.126648 6296.75293
165.180801 72.878593
165.208054 21.9009
165.261353 9.013888
165.30748 7.757576
165.319046 15.67325
165.328873 6.75
165.343597 65.110779
165.394226 5.721491
165.435364 14.20455
165.444351 20.63728
165.471542 14.40833
165.496399 37.949829
165.554413 14.99256
165.606979 3.875
165.645844 15.05336
165.654709 11.0121
165.668121 7.690476
165.728165 14.752
166.000504 19.045401
166.246262 8.240196
166.358414 11.0
166.394318 8.367424
166.528885 6.355392
166.537949 18.94845
166.591827 4.351191
166.688202 20.096149
166.75351 7.383333
166.808456 18.8151
166.820908 3.677083
166.969223 7.338235
167.06868 377.459808
167.093445 81.177177
167.104736 354.092987
167.139999 158.802795
167.281677 6.906746
167.420517 11.06019
167.522598 7.019608
167.708435 12.70588
167.771057 8.818548
167.947525 13.06667
168.148773 1796.255005
168.200989 12.67014
168.230804 4.558333
168.28894 9.403508
168.357162 4.59375
168.426666 43.500801
168.451599 34.010201
168.465118 7.686403
168.635635 16.629629
168.785782 11.69565
169.083328 381.302704
169.097595 382.346191
169.110336 17.264009
169.122986 136.663406
169.153046 59.713638
169.174652 4.002451
169.274216 17.334089
169.310852 25.52734
169.491547 5.668859
169.541367 10.60093
169.550964 4.59375
169.722626 17.00082
169.736206 21.80167
170.16452 585.950684
170.299072 10.33333
170.335022 20.237009
170.435226 4.683333
170.493958 16.70175
170.584457 11.25521
170.743958 19.736111
170.870316 16.21212
170.912979 5.694445
170.944031 7.605556
171.057755 19.05192
171.115768 2227.475098
171.171463 3.0
171.19014 18.2526
171.226959 32.17971
171.295288 19.045401
171.353622 10.00417
171.388306 13.48485
171.399323 8.022223
171.435959 21.4902
171.453781 6.694445
171.478882 25.625
171.599579 3.333333
171.608688 6.682971
171.776291 4.592948
171.81636 35.517021
171.850311 8.68883
172.059753 17.066669
172.085464 135.762695
172.09848 27.48214
172.153824 20.125
172.174271 6.732527
172.210785 11.54167
172.245926 69.944443
172.26123 13.09921
172.278778 34.23864
172.288406 6.057692
172.305725 31.106689
172.330322 9.382936
172.353943 48.41375
172.401779 27.154039
172.420853 13.90542
172.494965 6.818182
172.516876 29.9734
172.599075 19.334021
172.631058 4.120098
173.000793 16.08889
173.041153 10.935
173.095764 11423.349609
173.13176 6927.170898
173.184631 68.328049
173.198364 19.658779
173.213623 75.293808
173.225662 42.698029
173.249054 9.823529
173.28038 21.36064
173.295258 31.61174
173.307388 21.199471
173.326523 123.787102
173.36026 37.097038
173.376541 34.704552
173.386276 33.02021
173.395935 18.000971
173.413681 44.008259
173.424133 22.190479
173.440704 22.217171
173.453308 52.999249
173.467316 20.523809
173.485474 21.54545
173.497284 118.243202
173.539886 14.13127
173.559891 53.688431
173.575775 36.436859
173.59964 53.701092
173.618256 17.45525
173.644592 37.452309
173.666214 11.3344
173.69397 81.839752
173.735016 30.8736
173.779846 22.16667
173.808289 36.717251
173.818726 5.884804
173.844803 38.732552
173.870422 22.51099
173.915665 4.375
173.953598 40.901779
174.040237 7.5
174.170563 37.897301
174.239029 20.827221
174.260254 12.09122
174.284775 47.07814
174.336121 17.48214
174.40451 8.66793
174.619202 47.31179
174.635529 7.605556
174.666794 38.26046
174.739548 49.616241
174.787003 68.236107
174.945236 6.177083
175.074936 271.999512
175.111191 11599.55957
175.146881 2653.85791
175.205139 70.076874
175.220703 10.13611
175.256226 19.05357
175.278275 41.147751
175.306244 61.148338
175.338409 23.800051
175.353165 23.705391
175.366211 31.734171
175.384644 37.653301
175.439758 3.669118
175.449463 19.204281
175.472931 21.782829
175.48201 29.489679
175.508926 9.642095
175.530518 10.84578
175.545761 7.666667
175.559357 8.010417
175.609985 31.101191
175.67485 12.33796
175.716431 15.3913
175.725586 7.748333
175.753235 14.04787
175.774048 54.862461
175.850571 12.24134
175.891632 14.00278
175.919357 9.358974
176.043961 10.68314
176.057785 4.120098
176.17514 14.78947
176.184341 12.10205
176.21875 19.39706
176.251694 23.871389
176.325607 7.130208
176.398941 12.09643
176.431946 10.15278
176.506287 23.214291
176.529938 10.96354
176.787842 13.91667
176.833984 7.260803
176.955276 7.815
176.996063 4.002193
177.090607 3897.810059
177.126465 4598.077148
177.159988 341.143707
177.216751 17.849779
177.25502 40.549339
177.343369 4.061275
177.361115 5.157052
177.380402 13.12333
177.398956 6.337963
177.42218 7.088768
177.440094 13.83056
177.488434 14.25941
177.515518 7.074275
177.545212 99.77729
177.593628 4.0
177.636826 97.426239
177.663544 46.945129
177.714188 12.60682
177.839432 4.675926
177.853348 7.349638
177.862625 11.0049
177.893326 10.2
177.980682 13.60648
178.003494 9.149692
178.021469 4.669445
178.040054 11.78241
178.057541 26.45174
178.076065 11.81071
178.151138 12.41071
178.236099 45.17643
178.269196 17.294121
178.294434 6.748333
178.304428 23.53138
178.321945 28.17857
178.40004 11.625
178.424576 17.77076
178.453613 5.222222
178.597717 48.600769
178.620682 24.61364
178.675537 17.872511
178.69368 11.58854
178.743622 12.01389
178.801254 12.00417
178.838272 13.0026
178.894104 9.79594
178.903412 17.46051
178.94841 10.33333
178.963913 10.00102
179.011093 20.210529
179.072189 195.960098
179.10611 23985.710938
179.182098 28.56148
179.204483 28.158899
179.243637 44.349361
179.26825 79.027977
179.291763 38.268841
179.302536 22.40064
179.32312 32.675709
179.346191 110.584801
179.373886 16.552271
179.396729 42.265942
179.412552 54.29039
179.440506 57.911041
179.467392 30.695749
179.487137 73.400627
179.52655 48.149471
179.585724 55.785229
179.60675 4.8
179.618622 46.225319
179.669403 65.188667
179.717636 20.727381
179.751221 11.0
179.77356 4.669445
179.798004 20.01042
179.816528 41.760872
179.846527 17.213539
179.85788 7.347222
179.902512 32.16637
179.912842 33.42173
179.933533 34.514099
180.037064 30.267759
180.077637 140.940399
180.148483 122.757004
180.624557 6.76923
180.905197 5.041667
181.022003 44.475868
181.120911 3116.323975
181.177643 19.23333
181.213943 6.458333
181.309738 17.3564
181.464645 32.794331
181.496872 6.428572
181.545212 29.421881
181.566269 23.27812
181.776566 8.019608
181.800018 3.680556
181.875565 11.63516
181.978317 6.00926
182.107315 127.069099
182.12381 9.856982
182.144287 3.0
182.259949 4.083333
182.31636 9.41565
182.358643 8.333333
182.378128 13.48188
182.823715 13.0163
183.081299 45.0121
183.115646 1071.723999
183.136765 889.740112
183.173996 48.668621
183.200592 20.675211
183.241974 3.720238
183.280594 8.367424
183.308853 5.0625
183.327499 10.33611
183.351242 4.033333
183.365387 4.333333
183.417068 10.32545
183.439743 13.75521
183.464325 3.358333
183.478455 5.0
183.530304 6.0
183.570953 12.3729
183.624573 4.003205
183.648178 3.35
183.709442 13.00076
183.731552 13.56019
183.774384 8.704545
183.819016 27.12674
183.880905 16.85965
183.954391 13.0163
184.086761 28.50264
184.407959 10.80952
184.574875 4.25
184.833389 8.020833
185.09523 1097.225952
185.131622 4183.808105
185.183578 6.201666
185.202484 5.005952
185.255386 35.04916
185.294434 43.997978
185.306961 5.695513
185.38382 20.41667
185.41069 15.75126
185.425064 6.458333
185.46402 32.988781
185.482452 15.23978
185.508408 6.884804
185.647934 13.6875
185.662003 10.0
185.75383 24.81492
185.808975 6.692308
185.872192 14.18702
185.92276 18.56654
185.997086 3.933333
186.061905 22.99242
186.174591 17.763161
186.184616 3.386905
186.350021 4.453432
186.577774 5.362179
186.71579 7.748333
187.047928 3.483333
187.077408 21.00333
187.11116 1299.587036
187.146378 2106.719971
187.215286 50.519901
187.268829 11.44599
187.283859 24.298759
187.307632 6.25926
187.330536 10.11265
187.37326 47.564991
187.391586 15.73848
187.453629 7.696428
187.486496 42.28883
187.509872 6.107143
187.521393 3.080128
187.572479 19.413521
187.590958 3.675
187.620926 3.695513
187.648926 11.97543
187.675293 8.266666
187.696381 4.007576
187.740982 20.1875
187.970657 9.589744
188.084702 19.10746
188.125214 3.791667
188.274979 9.720239
188.292892 17.46731
188.40303 9.556818
188.512833 11.73039
188.549194 21.49614
188.646713 24.29681
188.667175 8.506945
188.689041 8.333333
189.019867 29.5016
189.090179 1678.855957
189.126175 2067.97998
189.162323 732.041382
189.232956 5.375
189.258148 8.003968
189.282684 41.937119
189.301224 7.716667
189.323288 15.57344
189.360321 12.21354
189.392181 8.028153
189.416824 13.92647
189.449631 10.45058
189.478546 22.29933
189.509399 8.018651
189.535828 5.729167
189.583237 5.683333
189.617264 5.001667
189.634232 19.386641
189.678986 14.05833
189.713089 4.041667
189.744232 5.958333
189.756302 8.415
189.766083 9.796296
189.845108 7.361538
189.871246 6.668104
189.923981 10.70379
189.951187 39.35043
189.961044 14.92024
189.982834 42.700321
190.008286 9.266666
190.023163 10.54688
190.035919 6.12037
190.058838 22.36479
190.104721 5.449074
190.115219 8.68883
190.19754 12.10668
190.221359 12.86613
190.23439 12.93889
190.251205 6.818182
190.265961 15.00278
190.320297 97.265877
190.355667 8.255208
190.389313 5.340278
190.480042 25.055559
190.502716 22.1598
190.538147 6.05
190.559769 17.0
190.590973 12.79839
190.610214 8.546718
190.71106 4.703703
190.730286 8.667735
190.807159 4.721491
190.860031 7.162634
190.927322 7.102273
191.017975 4.891667
191.073395 98.171288
191.106216 26825.130859
191.140457 641.688599
191.223907 53.383179
191.251053 96.587173
191.271423 55.742371
191.282516 15.81071
191.328506 13.4537
191.347321 87.16066
191.366791 102.466003
191.384949 14.75556
191.395691 33.229599
191.406509 69.996902
191.422424 88.396317
191.442078 24.71747
191.465683 39.720242
191.488342 110.042
191.521164 48.494831
191.533493 23.00421
191.550079 58.551449
191.580139 40.605751
191.59639 24.389641
191.620163 12.33412
191.649109 22.1353
191.663345 20.644831
191.694 57.148319
191.714081 13.58333
191.785599 42.66267
191.814972 51.266628
191.875519 20.67465
191.9263 11.08333
192.205902 12.30682
192.388748 10.72115
192.612457 7.773809
192.62793 15.68792
192.724548 9.337501
192.748978 22.81081
192.763474 25.986401
193.069275 31.153851
193.084183 74.659576
193.12146 7741.583984
193.179672 64.108849
193.203857 22.68088
193.228104 31.75769
193.244827 24.737499
193.280319 22.373039
193.298035 16.23077
193.313614 4.354167
193.362274 23.16573
193.442047 11.53452
193.477127 8.447223
193.514954 4.531863
193.527695 12.10565
193.616623 9.125
193.644577 8.416667
193.66716 21.393419
193.815552 24.476589
193.898575 32.016651
193.924683 13.41223
193.989807 4.1875
194.016205 9.171748
194.030777 16.670139
194.105667 40.572281
194.384644 4.349638
194.462326 10.36687
194.700195 19.705879
194.751297 10.63377
194.787109 20.53788
195.049713 5.801667
195.134979 500.902496
195.167877 11.0119
195.291504 20.01515
195.328888 10.38075
195.412109 25.74085
195.511215 10.89382
195.677414 10.89855
196.021866 9.75
196.053085 18.35376
196.080505 27.11544
196.101151 68.608849
196.198029 6.075617
196.442108 12.97961
197.032181 5.001437
197.097443 136.644104
197.132324 749.881897
197.191986 8.952941
197.276428 7.058333
197.310928 14.57222
197.383942 4.335
197.471924 8.68889
197.564819 3.668651
197.579453 3.337963
197.615036 7.935
197.643555 14.77174
197.770248 9.109649
197.828964 9.341666
197.885239 8.25
197.941544 3.440476
198.019836 10.19444
198.059311 33.713619
198.102814 65.535553
198.139008 722.666077
198.259796 5.382936
198.492722 6.893518
198.591507 7.444445
198.84787 3.727941
198.922134 23.50992
199.049698 38.694962
199.110245 1629.704956
199.147919 1530.44397
199.200882 8.410256
199.226074 13.00181
199.265259 15.77011
199.371689 14.38664
199.464966 46.529251
199.507248 12.32024
199.618286 13.33889
199.629257 8.081897
199.658417 10.97543
199.696167 15.15188
199.777725 14.10278
199.933685 9.240384
199.991455 27.65761
200.002319 11.79688
200.027206 5.522727
200.07637 14.48457
200.155197 625.545715
200.21907 16.06052
200.361801 9.755555
200.427368 6.533333
200.445587 5.708333
200.519592 8.893817
200.53949 8.677083
200.829956 5.35307
200.903656 6.916667
200.972946 6.015
201.089294 87.330933
201.126953 6366.062988
201.185898 24.09145
201.205841 5.761364
201.237259 76.18148
201.249222 4.340909
201.279495 7.481482
201.296661 16.966961
201.328201 4.002778
201.347748 19.230301
201.367691 3.727941
201.402252 5.672619
201.447708 14.59444
201.4841 15.83321
201.506119 9.333333
201.521194 13.48649
201.550766 9.055108
201.572372 13.3795
201.619537 8.667483
201.707596 26.721581
201.815811 14.63333
201.836945 11.44537
201.878799 15.92064
201.950195 9.323276
201.961914 5.747549
202.049789 19.05382
202.079208 15.66801
202.171692 15.72429
202.361237 14.73848
202.380981 16.683201
202.39621 20.46944
202.410721 20.11512
202.52948 9.72
202.687943 6.702587
202.767212 18.00079
203.105209 1049.900024
203.142014 4482.619141
203.180695 124.1493
203.201736 25.631941
203.223206 6.668478
203.248001 4.35307
203.307556 6.777778
203.328033 18.712641
203.342422 29.6891
203.376984 15.41879
203.392853 9.639493
203.441589 25.684959
203.476379 21.363529
203.519394 18.64744
203.547775 19.42178
203.568283 20.006821
203.803192 10.04274
203.862625 8.573413
203.913452 16.690781
204.032059 26.0056
204.370438 11.21333
204.489822 6.520061
204.629135 11.67816
204.785553 16.562361
204.937698 15.5744
205.052353 6.383333
205.086685 178.482101
205.121796 1307.029053
205.154297 199.065094
205.201797 3.35
205.321518 7.338542
205.371216 21.69463
205.386108 13.67262
205.53627 13.37654
205.760361 5.680555
205.790863 8.615
205.820786 5.633333
205.885162 14.14371
206.059875 5.720238
206.657623 17.504271
206.754608 16.35985
206.849899 15.57445
207.09993 277.198303
207.135788 357.218689
207.174057 31.46167
207.455215 5.760417
207.566025 24.73984
207.686111 6.777778
207.771332 15.33621
207.788025 7.653986
207.855682 11.2598
207.871628 28.860861
207.891449 18.43512
207.951523 29.39715
207.981995 13.8776
208.016052 4.259615
208.037186 5.00641
208.058044 16.54167
208.121918 96.943398
208.418701 13.25494
208.660782 3.926282
208.770477 12.62681
208.901138 15.41667
208.941803 26.417231
208.981827 5.427083
209.007385 26.353149
209.117264 8532.486328
209.176392 43.849098
209.193192 10.53333
209.212448 18.73848
209.233124 7.335145
209.264481 76.720161
209.284821 15.45581
209.305679 10.44599
209.325394 25.538429
209.342758 6.367424
209.37764 34.005581
209.415344 57.249859
209.429688 47.011902
209.464111 44.958858
209.481842 31.96032
209.510666 58.047749
209.550262 9.767339
209.56102 9.347222
209.577881 39.251888
209.600876 3.490385
209.630905 21.712749
209.651993 17.994499
209.726578 4.382936
209.75177 7.102273
209.894196 13.07738
210.041565 4.458333
210.102539 70.48262
210.14859 37.345341
210.30925 16.61364
210.387054 14.125
210.523346 7.138889
210.538391 14.3467
210.55751 19.957689
210.619263 9.680555
210.746033 10.19167
210.761124 7.04594
210.795288 36.8932
210.875565 16.190479
211.019608 61.48209
211.107468 279.009186
211.137405 5480.285156
211.191055 13.74167
211.369949 25.66114
211.397507 9.68
211.45314 5.016304
211.589767 5.355392
211.934006 5.724359
211.965729 16.24646
212.039337 10.04167
212.050507 11.05556
212.14859 100.836601
212.197464 5.133333
212.293732 3.047619
213.091354 135.805099
213.163193 211.535797
213.192291 13.42222
213.224365 12.81226
213.263 6.160257
213.382385 4.387821
213.435791 8.472222
213.451004 10.75
213.489777 15.59524
213.541458 5.791667
213.578094 5.033333
214.012619 16.15815
214.061356 4.408333
214.193832 18.87781
214.229355 5.0625
214.275574 6.09375
214.30574 9.35874
214.417953 9.688597
214.490204 12.70383
214.650681 17.864031
214.753983 4.055556
214.835724 10.67281
214.87146 14.08046
215.107101 141.911102
215.176666 149.212097
215.203537 11.934
215.335724 9.727273
215.447983 17.70249
215.484024 8.401515
215.618942 9.592593
215.642136 11.00833
215.779617 6.357143
215.795425 6.672222
215.818039 8.46558
215.856766 6.668859
215.996445 6.787879
216.067413 76.65696
216.081711 10.3555
216.12149 6.818182
216.149368 403.622009
216.286316 11.0
216.357986 6.801667
216.582428 19.7463
216.834137 18.3435
217.121979 1519.842041
217.158203 1432.76001
217.193283 78.824692
217.218475 5.667929
217.240311 28.5905
217.254379 4.002451
217.280685 17.34355
217.372345 11.09122
217.39621 14.03788
217.416733 11.7037
217.464172 4.225
217.500076 5.005952
217.567062 10.51068
217.592941 8.333333
217.608337 7.736842
217.635315 7.935
217.675339 8.388441
217.721252 14.46537
217.73851 32.058239
217.822281 43.370621
217.849701 7.382936
217.885544 11.21333
217.909012 14.94697
217.931137 17.987181
217.982849 24.1047
218.386871 16.309429
218.463837 17.101191
218.579346 3.358333
218.794144 25.62236
219.100052 243.315598
219.137222 5856.876953
219.200394 20.341669
219.22084 19.718479
219.284546 14.15343
219.323425 29.344561
219.365616 63.537109
219.402466 44.28878
219.431473 49.364861
219.456589 37.10799
219.501404 26.24238
219.529663 14.32018
219.543121 6.081667
219.567337 17.150299
219.624695 10.03157
219.659424 26.783501
219.804794 49.060879
219.825897 53.82901
219.852051 34.448818
219.890854 5.482143
220.039444 37.13274
220.083771 8.416667
220.20549 21.22727
220.238968 4.802778
220.340805 4.222222
220.471024 4.340278
220.564087 13.66667
220.626022 7.354167
220.755676 15.23978
220.791397 8.676282
220.888474 14.84881
220.95903 5.136111
221.068542 66.371048
221.120407 390.809692
221.152832 3901.788086
221.200439 54.857849
221.222717 10.2803
221.252167 10.86404
221.325699 13.9375
221.344254 20.725
221.386536 15.26059
221.426895 14.02332
221.453568 7.472222
221.526459 6.347222
221.727097 11.48761
221.76442 8.893817
221.795395 5.001544
221.829071 18.74769
221.867935 7.078432
221.900314 22.435459
221.97612 48.90276
222.106903 508.906891
222.136185 41.334541
222.806839 4.684524
222.934082 6.0
223.211823 3.490385
223.25885 11.08013
223.289963 19.66987
223.357391 5.453432
223.373291 11.34626
223.417328 15.20059
223.492828 6.520061
223.550034 4.666667
223.57634 10.6713
223.716415 8.395833
223.877853 7.486111
223.955933 15.68269
224.089676 21.783331
224.118378 73.249817
224.211136 10.82456
224.236923 4.469445
224.34137 10.38272
224.372635 9.675
224.565475 6.352941
224.695831 6.666667
224.818634 27.171009
224.957382 6.740942
225.125412 425.264404
225.200638 7.841667
225.327271 10.00397
225.551834 4.481482
225.574677 17.889429
225.666824 11.40514
225.703415 19.31189
225.907974 6.335318
225.997925 38.303509
226.021713 4.523809
226.236832 12.34783
226.540726 8.323276
226.624207 4.037037
227.104828 189.091095
227.141495 1240.629028
227.176163 549.679871
227.226349 8.25
227.276703 18.25
227.300308 7.334596
227.861969 23.002979
227.961655 8.015873
228.156433 298.131714
228.325424 8.633333
228.572464 17.037359
228.915237 5.003205
229.120316 279.870209
229.194275 43.929642
229.250992 22.53788
229.328018 13.85417
229.36702 10.29643
229.724655 7.009615
229.740997 16.410521
229.811615 23.04167
229.920013 16.31144
230.013733 6.988889
230.165161 48.560051
230.278702 8.284091
230.294479 17.44416
230.336731 10.36694
230.743439 27.89782
230.781448 14.52608
230.817429 17.124029
230.975311 3.115741
231.104218 14.00833
231.137344 5538.952148
231.170288 209.523102
231.21019 88.158691
231.261612 9.001016
231.315674 11.11574
231.34111 22.008329
231.372086 17.01984
231.401566 36.255741
231.439606 30.931471
231.478134 37.87244
231.499771 9.280702
231.526367 18.92547
231.543396 9.444445
231.587112 20.68297
231.60025 9.138888
231.690338 7.455883
231.790955 4.083333
231.870453 14.49038
231.899094 23.906691
232.236084 9.075
232.27507 8.45
232.639404 14.72222
232.793076 4.677083
232.984283 5.049603
233.114609 275.880096
233.151215 621.819824
233.233856 5.681667
233.516556 20.680559
233.579193 6.677083
233.659042 10.19032
233.72876 25.213671
233.776886 4.791667
233.873062 13.63636
234.105392 24.267111
234.347229 23.02519
234.682938 7.240079
235.112335 57.545639
235.134277 245.772903
235.320679 5.633333
235.342514 24.854019
235.379929 9.560185
235.556046 8.429762
235.593704 29.76886
235.673676 5.827381
235.735596 79.775993
236.151001 149.166199
236.390564 5.333333
236.437759 4.736111
236.534164 10.76956
236.879395 7.5
236.924911 18.679279
237.012634 18.3908
237.053421 4.003788
237.081207 15.18667
237.129471 998.170227
237.15625 615.937683
237.208542 4.440476
237.230225 3.669444
237.342773 8.388514
237.378311 19.008841
237.443817 16.43561
237.471466 11.04545
237.52124 20.080891
237.546478 7.67803
237.566666 14.09524
237.706024 7.484848
237.783997 13.36076
237.89502 4.760417
238.166992 55.657681
238.305191 11.6875
238.717087 12.79167
239.141815 622.814087
239.171463 67.792931
239.233139 6.675926
239.459991 5.226852
239.793015 10.35088
239.943893 13.0498
240.0103 7.779321
240.146027 274.502289
240.374298 5.225
240.483078 5.34375
241.122421 465.241211
241.157013 627.942505
241.193832 766.006287
241.24437 27.4578
241.297882 16.49799
241.343079 13.00278
241.366562 6.148809
241.390259 3.333333
241.460999 10.89851
241.49855 4.028846
241.521332 24.42848
241.58815 19.76136
241.608017 18.41223
241.668793 19.34832
241.687637 4.763889
241.824249 25.521521
241.887787 6.001344
241.904022 6.840517
242.147568 10.67029
242.391235 10.07407
242.413696 9.615
242.813934 6.201666
243.101028 14.00694
243.137833 237.878006
243.174347 516.434326
243.308182 24.67108
243.368271 8.595239
243.448395 7.201666
243.542175 5.041667
243.716568 19.226191
243.752625 7.041667
244.774796 3.025
245.154007 440.128998
245.195724 30.13225
245.455627 4.033333
245.504974 19.798389
245.538528 4.297619
246.138809 289.37149
246.268402 10.34483
246.328552 9.688597
246.612473 5.391026
247.132874 309.171112
247.167862 129.141998
247.198563 3.708333
247.591354 13.5
247.689194 6.371212
247.711792 9.797101
247.773788 7.280303
247.804886 12.38272
248.786255 4.363636
248.824539 9.698232
249.122986 69.549637
249.146729 1541.737061
249.182388 92.684471
249.225449 17.689171
249.252762 5.742284
249.296707 5.006944
249.323669 9.688725
249.461044 9.388441
249.525864 6.160088
249.64444 11.90741
249.71434 4.694444
249.786285 9.490196
249.846298 9.357558
249.923294 17.335649
250.071808 15.47748
250.131531 106.732903
250.161697 11.26833
251.178482 1974.991943
251.222961 8.694445
251.24469 38.88726
251.28537 12.33333
251.305634 5.333333
251.423035 21.153851
251.534088 3.857143
251.560471 7.564815
251.618423 3.266667
251.687973 6.533333
251.771484 15.88982
251.853363 5.414216
251.868393 3.773809
252.019165 11.03788
252.045181 5.702587
252.448425 14.24575
252.774872 12.33514
253.11937 21.614031
253.132797 67.201729
253.157593 1810.124023
253.196564 49.371429
253.211899 6.672222
253.227661 8.673612
253.477921 13.90645
253.544113 9.463542
253.60527 16.07181
253.667084 16.125
253.688202 6.022223
253.72702 10.32143
253.838272 5.208333
253.860016 4.691667
253.898788 4.069444
254.015366 16.10677
254.062607 53.8186
254.531143 9.024224
254.608841 11.57908
255.135971 586.866028
255.173126 876.537781
255.24762 3.677083
255.274109 4.555556
255.287399 13.05482
255.392151 19.01667
255.476562 17.9401
255.611206 12.14405
255.763672 3.926282
256.433228 11.20427
257.153046 420.592987
257.207855 18.768721
257.375214 3.402778
257.464508 9.72
257.564941 7.019737
257.621155 7.011905
258.017853 7.714285
258.140381 4.011905
258.504913 11.45
258.554169 9.109649
258.811523 3.35
258.960724 19.90675
259.078064 31.432131
259.12851 142.1483
259.169891 660.437805
259.202515 233.741806
259.233521 5.444445
259.382965 14.58675
259.668732 5.355392
259.689392 23.18627
259.73584 14.67029
259.807556 7.306818
260.010651 4.7
260.117249 4.335
260.143524 52.285782
260.425934 17.0056
261.162933 870.406982
261.181854 281.428101
261.226562 7.125
261.30246 7.391666
261.382629 15.4975
261.459961 10.33435
261.482452 5.001544
261.58371 17.667311
261.651337 11.77174
261.713135 4.002451
261.743164 18.45211
261.927063 7.757883
262.12619 17.82716
262.208649 6.160257
262.55481 7.008333
263.194702 45.336109
263.365479 8.856061
263.59201 17.482759
263.822235 6.03858
264.150391 544.593994
264.208405 54.756271
264.382263 18.299999
266.16098 29.345591
266.183807 7.670455
266.467682 10.01013
267.139282 35.334591
267.173615 184.421494
267.297455 8.667592
267.542633 20.66288
267.576233 7.078432
267.618408 6.84375
267.758606 4.531863
267.786804 6.673077
267.809601 3.333333
267.907532 16.14683
268.031677 6.006945
268.140869 77.461853
269.095673 42.330719
269.147614 111.213898
269.189087 2566.343018
269.266418 21.345079
269.343964 20.14423
269.388916 6.415
269.452881 16.6674
269.478912 27.75499
269.52124 20.36566
269.668427 24.36257
269.697388 7.684524
269.737946 4.041667
269.756012 14.44551
269.782227 10.04167
269.805237 7.047619
269.950287 15.4454
270.074554 3.380953
270.242401 5.0
270.617981 4.120098
270.901886 5.973485
271.070435 42.361561
271.16861 1514.630005
271.301453 72.649582
271.354919 3.111111
271.447723 22.06389
271.505676 12.41346
271.597534 8.102564
271.649048 9.204166
271.930084 5.355392
271.990417 6.633772
272.572998 5.801667
273.14093 49.600639
273.180359 135.643906
273.624603 5.166667
274.063599 28.210939
274.087616 3.875
274.185944 85.923882
274.816742 4.823718
275.164429 8.394608
275.382965 17.686319
275.45871 10.93889
277.177368 353.01059
277.425903 30.995649
277.482697 13.0
277.511658 7.388514
277.574921 13.56019
277.836761 8.958333
277.969696 8.015873
278.120728 18.06905
278.387421 9.006945
278.819672 10.00595
279.173737 4030.746094
279.247131 17.33543
279.305298 7.761905
279.334137 16.824181
279.357666 17.825581
279.485596 12.1408
279.523041 8.132247
279.55484 11.00198
279.654266 17.66667
279.669128 6.095238
279.729248 16.194441
279.776917 21.94672
279.906006 15.40516
280.053772 25.629999
280.446686 48.517769
281.435699 17.58333
282.154999 34.992458
282.336426 6.272727
282.389435 9.021258
282.804657 7.334524
284.059113 43.537628
285.068298 42.75787
285.182831 504.993713
285.288361 5.482143
285.343597 16.080879
285.418518 25.438869
285.502197 14.76552
286.070129 91.296944
286.096222 10.675
286.814667 10.36687
286.880157 12.7064
287.200134 986.289978
287.449005 18.11574
287.503387 5.296568
287.579742 13.59414
287.632812 12.45
287.681305 16.1201
287.817047 12.35648
287.850189 24.09675
287.881958 6.668478
287.934113 6.966667
288.087036 37.260529
288.277069 12.70833
288.950592 3.185606
289.022461 14.36134
289.14328 25.355391
289.179535 1421.55603
289.25824 28.29483
289.314484 25.04541
289.359528 9.349999
289.430542 10.33446
289.516205 16.68433
289.589172 15.16114
289.703888 7.444445
289.779297 14.71143
289.833313 20.68432
289.997772 5.761364
290.064178 9.773936
290.977386 7.840517
291.149567 11.77174
291.286285 6.98077
291.309753 7.001543
292.158813 60.710751
293.49295 6.728535
294.005737 11.01754
294.659576 10.84375
295.159912 33.14991
295.355438 10.9467
295.457214 10.41207
295.481689 27.05674
295.504883 7.407407
295.534058 15.86859
295.561707 4.469445
295.617981 20.06888
295.703308 5.703947
295.811798 25.33404
295.896057 5.884804
296.073578 26.251459
296.366669 12.36111
296.438049 3.733333
297.081787 87.992493
297.184021 7566.577148
297.254242 21.310209
297.281403 11.01667
297.303986 17.17729
297.335205 5.573412
297.376282 30.10858
297.399719 29.090481
297.437408 47.450211
297.478668 6.708333
297.519592 14.85965
297.548553 4.857143
297.616272 46.98423
297.644012 9.371913
297.667755 9.491978
297.68573 12.50347
297.704407 12.39583
297.765564 42.542889
297.800446 13.41223
297.859802 14.025
297.967987 15.28736
297.997925 11.52466
298.061279 17.71874
298.418274 22.323681
298.484558 10.4563
298.636414 12.51868
299.065887 885.143921
299.122009 5.724359
299.1521 10.06187
299.321045 14.88806
299.38681 10.85799
299.659241 7.5625
299.777374 33.854172
299.99527 17.57209
300.020996 6.533333
300.22583 6.160088
301.18811 13.2608
301.210052 8.469444
301.672485 5.787879
302.035187 7.057692
303.191254 3.760417
303.384949 4.335145
303.615234 14.39701
303.872345 13.26754
304.060394 54.89333
305.217346 38.719299
308.183014 49.11364
311.063049 44.998409
311.178864 30.801279
311.199829 47.88549
312.050079 64.26413
312.082245 44.978409
312.130798 3.002451
313.169922 13.16447
313.246857 11.08333
313.286102 11.93889
313.311554 13.67949
313.355255 8.022223
313.410095 6.382936
313.435303 8.45
313.48468 6.001984
313.564392 4.367424
313.648987 27.586981
313.731171 45.755989
313.871033 8.875
313.909515 12.97543
313.957184 5.041667
314.026245 6.057692
314.104401 33.56213
314.382446 7.075
314.507721 10.16329
314.748108 4.388158
315.194244 5066.209961
315.295288 8.776317
315.335358 13.80833
315.359711 47.82246
315.398163 23.445
315.452698 28.092739
315.482849 11.33333
315.50589 43.882622
315.539459 26.35013
315.561218 26.174841
315.580719 36.412651
315.682281 38.734772
315.723053 8.695513
315.748962 21.93667
315.789124 58.56374
315.893127 48.680531
316.438721 39.674309
316.471008 27.69697
316.622192 6.260417
317.087616 27.337959
317.308594 10.10526
317.328461 5.041667
317.559357 4.25
317.65152 3.640152
318.2771 8.595239
319.187866 27.5175
319.648895 5.335145
321.209381 19.79167
324.061676 13.56199
329.208344 29.584299
329.457153 8.378623
330.974243 17.015551
332.222198 13.06667
333.205017 1104.197998
333.281616 4.833333
333.428101 3.342592
333.485291 9.469697
333.682251 11.13286
333.8414 5.573412
334.254425 6.344048
334.312042 26.18116
335.362061 3.380953
337.073792 18.273741
337.327179 11.36232
339.09491 90.442627
340.075684 65.65686
343.108612 9.001666
347.196533 67.464943
347.21579 172.533203
349.609283 10.8375
351.085205 65.031769
352.771515 6.814815
356.03891 7.0
357.10144 29.26829
357.163666 53.39286
357.201294 570.608704
357.559998 15.35876
357.797943 14.92857
359.38205 5.5
360.032349 7.336111
364.079468 8.388441
365.130249 50.373459
366.102783 35.963242
367.107605 93.207558
368.073212 25.7129
372.94162 8.013888
374.023468 7.130208
374.678497 6.906746
375.214172 502.498596
375.381134 19.164141
375.413391 5.640152
375.462585 38.07568
375.522308 12.17188
375.606232 3.36218
375.64447 26.13349
376.017639 17.398809
376.106354 15.86012
376.672333 10.54825
377.07074 8.334523
377.091034 14.77778
378.100586 35.161942
379.047668 34.103821
379.635345 3.440476
382.1008 61.895248
385.084259 12.38526
385.131439 18.72727
388.110016 8.775641
392.15274 33.313171
392.299561 8.06586
393.104889 17.76923
395.157288 10.25338
398.744324 30.16538
401.108704 108.249001
401.134094 12.72917
404.115997 82.166672
406.126556 142.311295
406.362793 13.77778
406.987183 8.380815
407.128174 67.439377
407.16272 22.00901
408.357727 3.342592
409.271362 20.5942
409.841583 4.007576
416.143158 48.465672
417.108093 8.231482
418.168732 49.928711
419.129486 131.022507
419.411713 10.34131
419.512695 5.703947
419.575714 13.43219
419.689606 6.088768
420.099426 22.778851
421.730408 4.44079
422.118896 28.79891
423.203339 16.123541
424.142944 17.95833
429.137024 19.712061
430.469574 20.690861
431.125122 43.00185
433.175385 12.20833
434.125793 90.771347
434.168945 76.00766
435.168488 114.035301
435.194458 72.073669
435.261292 4.336538
435.851196 5.76923
436.184662 287.43689
436.385864 34.404461
436.713715 3.339286
438.209778 31.13286
441.109436 8.755208
442.122345 10.36111
444.124664 22.334459
444.306122 45.07061
446.164551 7.37037
446.333923 13.36012
447.161865 30.422041
447.414978 6.053572
448.497345 18.03047
449.14621 37.44928
449.356812 6.095238
450.05722 40.277699
450.127045 3.402778
450.198181 38.209709
450.251404 72.340233
450.312897 66.080673
450.361969 76.356354
450.396088 63.797569
450.44635 64.373741
450.485535 79.039253
450.533173 11.50427
450.619537 64.214218
450.64325 40.59222
450.680756 13.6713
450.733093 26.60733
450.808228 23.746149
450.832703 9.054487
451.194855 625.297302
451.289917 18.415489
451.543335 13.77315
451.582001 19.01333
451.777435 28.04574
451.907623 3.367424
451.988922 9.05235
452.052307 30.25865
452.126617 56.721298
452.205505 421.070312
452.381958 4.458333
452.559143 31.36412
452.950928 4.341667
453.050415 35.841221
453.106445 6.160257
453.153107 136.001999
453.212769 27235.359375
453.396118 131.297897
453.435852 152.206207
453.465271 12.56838
453.49411 37.87167
453.527283 94.541832
453.579163 121.686302
453.614929 144.556595
453.699036 172.799103
453.742523 75.514458
453.770844 98.653793
453.813873 99.345963
453.869812 195.333206
453.977966 67.754143
454.054443 92.43792
454.175598 104.052902
454.340393 64.162216
454.492218 30.699039
454.648621 35.22942
455.030518 26.59881
455.272034 47.553299
455.420898 8.482142
455.601624 34.194721
455.798462 9.422222
455.841522 26.33
455.998047 8.006945
456.385468 5.702587
456.489532 8.008333
456.705139 10.78241
457.598846 5.333333
458.138153 15.17339
458.298096 6.673611
458.357117 16.061359
459.382446 4.306818
460.36377 17.51042
460.477386 8.775641
461.172882 28.63344
461.201385 11.37121
464.177094 23.019739
468.195343 30.124029
470.20462 40.422951
471.142151 17.90686
473.171509 20.378731
473.881744 20.362921
474.156433 66.088318
475.131927 12.3649
479.288849 11.4697
481.164307 28.201309
483.605652 7.002778
483.720703 9.128788
484.184448 32.549511
486.29068 6.468334
487.334778 5.208333
489.167297 43.518681
490.151428 17.037359
490.319458 3.857143
491.197784 15.39682
492.140564 35.357578
492.163055 35.838539
495.192291 19.730339
498.186676 32.293251
504.328674 85.778809
506.355438 176.725693
506.496246 5.666667
507.168549 24.409401
509.518036 5.510417
515.184937 65.333344
515.232178 6.355392
517.205139 4.520833
519.219604 10.40351
520.22937 29.589741
523.978821 10.66667
531.130249 6.6875
532.188477 12.69444
548.377441 14.43333
551.208069 43.010738
559.368103 35.56002
568.230103 42.87101
574.268738 21.375
575.2724 59.38929
575.461487 12.75
576.368408 31.41633
578.234192 12.32018
580.228577 32.494282
584.182922 32.16412
585.271362 23.969139
594.328247 7.017857
596.586304 3.337963
598.236084 45.75919
599.317078 14.67782
600.471619 5.958333
603.287598 79.724922
604.262817 19.403299
607.26416 27.343439
612.611511 21.9391
613.254395 57.654099
613.539001 6.001984
615.228149 18.67864
615.324402 17.82469
615.933411 9.449074
616.2547 197.454498
616.428467 18.20056
616.575012 5.388158
616.62561 22.85058
616.671448 11.48007
617.327271 34.024189
617.479065 13.97436
631.257629 66.220131
631.298706 12.02083
632.285339 18.09399
632.331482 7.375
633.2547 7.520833
643.300537 13.00833
644.306763 11.3952
647.2948 17.680559
649.278748 4.337963
655.250854 60.630871
655.338074 72.869926
658.255371 142.024002
658.572266 5.136111
658.718445 12.02679
658.861145 20.415979
659.0578 14.00798
659.959839 6.011905
661.330933 58.348511
661.566895 3.6
662.39325 6.422101
662.46936 3.958333
673.596375 5.76923
674.120483 9.739865
674.300842 15.68627
676.272949 241.996506
677.775452 22.08276
684.36554 3.034091
685.138123 4.375
691.2771 31.689699
693.310303 4.013889
693.377258 9.313725
693.414368 15.94444
711.392883 5.0
714.088074 7.704545
721.320068 6.833333
722.344849 23.236111
723.359924 41.996811
724.639709 17.0121
731.34082 9.17385
747.365112 5.673077
750.403442 33.22139
757.652588 6.755435
767.389526 27.0947
767.51886 11.085
767.757507 10.93939
767.804138 6.520833
767.856201 12.44978
768.759155 12.60167
770.268127 11.50508
778.739563 6.710784
782.344177 20.403509
783.46228 5.598684
785.408264 251.971802
785.764709 19.35677
785.839294 7.15
785.979248 20.0928
786.138184 5.148809
787.422424 17.3867
799.446899 15.10345
799.880005 11.34028
809.415833 37.158569
809.987488 3.857143
811.373291 4.734848
811.611145 7.2
817.420776 45.410019
818.454102 5.002451
822.294617 7.757576
822.879028 7.349638
825.316956 7.272727
827.420044 119.188599
827.616455 6.615
827.774231 4.027778
828.38678 16.362181
828.960327 13.30996
839.649231 4.0
839.781494 10.92905
839.89386 65.323692
839.986938 12.54167
840.073303 23.449909
840.14447 41.64167
840.223999 14.13043
840.839172 3.358333
841.18219 10.04167
841.333496 7.029762
841.414246 14.28276
841.817993 23.67787
842.605774 15.6768
843.261902 7.674242
843.866882 17.56522
844.026672 9.699736
844.47467 10.66764
845.32135 57.8918
845.431641 6592.564941
845.5672 66.234222
845.618103 74.612228
845.691284 27.91017
845.750366 42.75462
845.873718 73.664841
845.913696 112.617104
845.954163 47.063721
846.019653 81.726692
846.224487 43.237751
846.282593 73.919579
846.989685 60.220119
847.095276 58.016209
847.307922 21.017111
848.472656 15.34099
848.756409 14.36134
848.848083 9.063725
848.908508 22.355261
849.166931 10.0
849.324097 10.73684
853.942932 16.06061
857.933777 21.186991
858.055298 15.3555
859.437683 30.6413
877.464661 140.638794
878.835876 9.667636
880.49707 3.675926
915.9552 5.667929
919.557129 6.733334
935.689209 6.15
1016.174072 7.520833
1047.441162 3.266667
1057.987427 17.92593
1067.149658 3.66886
1067.799316 59.23
1153.65979 20.000601
1289.022949 5.531863
1334.276978 9.375
1339.106445 13.51096
1480.905762 26.681789
