>compound Oxybutynin
>formula C22H31NO3 
>ionization [M+H]+
>parentmass 358.238
#inchi InChI=1S/C22H31NO3/c1-3-23(4-2)17-11-12-18-26-21(24)22(25,19-13-7-5-8-14-19)20-15-9-6-10-16-20/h5,7-8,13-14,20,25H,3-4,6,9-10,15-18H2,1-2H3
#inchikey XIQVNETUBQGFHX
#Ion_Source LC-ESI
#Instrument qTof
#Compound_Source Isolated
#PI Sirenas
#Data_Collector Ed Esquenazi 
#Scan -1
#Precursor_MZ 358.238
#ExactMass 0.0
#Charge 1
#CAS_Number N/A
#Pubmed_ID N/A
#Smiles N/A
#INCHI_AUX N/A
#Library_Class 3
#SpectrumID CCMSLIB00000006549
#IonMode Positive
#UpdateWorkflowName UPDATE-SINGLE-ANNOTATED-BRONZE
#LibraryQualityString Bronze
#TaskID d19310cd93df49b68e9fcbec27720eb5
##Scan# 3
#SpectrumFile Oxybutynin.mgf
#LibraryName fda_library.mgf
#MQScore -1
#Organism fda_library
#TIC_Query 0
#RT_Query -1
#MZErrorPPM -1
#SharedPeaks 0
#MassDiff 0
#LibMZ -1
#SpecMZ 358.238
#SpecCharge 0
#internalFilename spec-00000.mgf

>collision 10
100.015167 2.416667
100.076706 22.554279
100.113335 77.70015
100.191307 6.753472
101.037987 27.390039
101.211021 4.393518
102.595795 3.979167
102.677048 7.605629
102.874527 3.510417
103.05349 417.665314
103.103928 7.505068
103.135803 1.340278
103.185272 4.009259
103.290009 2.3
103.489487 5.026175
103.513268 10.10278
103.567261 11.00033
103.713295 3.351974
103.882614 5.339506
104.028046 5.244907
104.134521 2.858135
104.357437 2.006944
104.425827 3.502976
104.461723 1.3375
104.474266 4.648809
104.482323 7.44079
104.496971 14.5117
104.506416 53.698471
104.531281 26.786819
104.537498 15.77214
104.550415 17.49435
104.564537 11.23555
104.574303 10.075
104.582314 3.351293
104.591415 11.7484
104.606163 6.022177
104.612663 16.44379
104.642822 37.175331
104.660942 14.22047
104.667709 3.199597
104.675095 9.862268
104.699165 1.741667
104.706863 5.389352
104.719475 7.647096
104.728226 1.854167
104.750336 18.09049
104.802277 16.903021
104.849304 8.6875
104.865524 8.181607
104.90538 14.3913
104.919716 6.442935
104.934822 4.344415
104.953049 4.276268
104.963333 3.166667
104.983658 28.080481
105.033562 25772.519531
105.068848 1117.213013
105.106636 13.3336
105.130745 5.5
105.14518 1.833333
105.196915 3.8125
105.207954 55.471039
105.227371 14.34211
105.25177 42.49028
105.267975 23.88204
105.279747 27.751711
105.294647 42.150589
105.316696 15.72294
105.332321 27.907499
105.341454 38.55249
105.365585 50.09024
105.375259 15.78255
105.392639 3.775735
105.397736 64.291443
105.405556 10.35189
105.420082 10.19338
105.43187 38.844181
105.447899 8.12402
105.455765 1.501603
105.466263 60.518768
105.479866 27.88092
105.489166 16.33032
105.512779 9.340278
105.537392 32.445091
105.554169 19.622379
105.577148 9.486236
105.58548 3.234722
105.600082 32.732719
105.606789 6.05787
105.616592 2.168056
105.63089 6.011364
105.657944 4.380952
105.688148 52.554531
105.694984 8.827851
105.731026 5.891026
105.820641 12.50715
105.857086 19.676319
105.938576 5.516801
106.105583 11.44976
106.114136 5.193333
106.131378 8.462009
106.164322 2.893939
106.2145 5.50436
106.355423 8.820119
106.375221 4.65308
106.418137 11.3256
106.448616 10.46573
106.49025 63.749962
106.515305 50.846169
106.526955 10.0704
106.534943 13.83611
106.540619 7.734797
106.550278 6.006945
106.556656 8.537138
106.56617 17.16684
106.584114 5.16875
106.602669 9.751737
106.610069 9.64685
106.629768 6.786706
106.652534 38.17802
106.698105 19.67868
106.720627 8.84543
106.732986 20.673361
106.75605 17.21903
106.779137 9.614943
106.787186 4.51875
106.810501 2.0
106.824913 5.626984
106.871651 3.440476
106.887581 7.944908
106.914757 4.341486
106.940102 8.560185
106.95491 5.362319
106.97039 8.694303
107.049202 19808.269531
107.091248 40.109619
107.109299 21.336121
107.137177 5.836111
107.155952 6.009804
107.172432 8.733334
107.188522 13.93548
107.217163 28.037649
107.224777 7.745614
107.233749 11.79241
107.24144 29.018539
107.247955 6.673611
107.264618 65.559273
107.283684 22.370529
107.296486 5.051445
107.306351 79.748749
107.329971 9.640351
107.338745 20.466551
107.355179 17.31274
107.373886 12.19157
107.382355 12.61469
107.417885 25.2465
107.444389 14.17901
107.452156 17.502979
107.500183 35.291439
107.522148 14.18552
107.53302 36.454941
107.541344 5.285455
107.553711 11.32843
107.567368 31.180349
107.573135 8.838691
107.590141 5.961538
107.613495 18.672871
107.621162 10.60417
107.635437 8.217089
107.660484 7.142857
107.675941 9.564692
107.696335 14.37878
107.707634 11.83351
107.76902 4.016801
107.799232 11.43855
107.845772 22.97324
107.862946 1.666667
107.909866 14.39167
107.938896 8.361188
108.080742 4141.460938
108.125023 58.09383
108.150375 3.5625
108.177811 7.915
108.19426 12.48225
108.323891 6.439382
108.342422 8.218137
108.372887 4.342262
108.385963 19.32497
108.394714 6.822387
108.411461 7.064394
108.432266 7.645379
108.449745 16.424431
108.509926 11.53252
108.554169 5.34157
108.60714 8.609601
108.619392 5.041159
108.662949 4.973684
108.681229 9.581667
108.817123 3.335526
108.961853 8.320652
109.088707 2376.133057
109.148109 10.89681
109.207138 4.948718
109.237488 8.23742
109.302094 1.5
109.32399 9.740741
109.396683 4.671474
109.421631 3.922149
109.429436 7.719017
109.4403 14.67021
109.477997 15.07104
109.492546 3.815476
109.553307 10.0125
109.575073 1.720238
109.655396 4.607143
109.695259 8.796296
109.717041 8.5
109.73912 5.031746
109.754044 6.317581
110.142464 5.172288
110.54953 2.840833
110.723999 2.501389
110.886299 1.5125
111.029831 4.629704
111.11338 3.197304
111.285614 3.875
111.314537 2.026786
111.679001 5.015625
112.074638 50.88781
112.249641 1.835648
112.426559 3.851293
112.45977 1.506945
113.022408 375.273804
113.064095 1.347756
113.082718 70.341743
113.409904 4.221102
113.73616 3.835227
114.090805 156.598099
114.125885 44.049389
114.349152 2.839382
114.427292 3.504808
114.460541 9.065909
114.613548 2.053571
114.870567 4.53293
115.053802 779.016479
115.116783 1.347756
115.185844 7.5
115.199074 1.901389
115.24604 2.466667
115.269653 6.85307
115.636757 2.395833
116.224091 2.335648
116.492798 5.504167
116.818306 1.963141
116.839966 2.9375
116.968483 7.377752
117.070175 1415.092041
117.120354 6.211769
117.137329 1.547348
117.168144 4.15308
117.175888 5.007246
117.197769 16.970711
117.234863 9.795598
117.265488 10.33333
117.276993 14.42216
117.295631 5.667092
117.306931 3.003788
117.329559 4.300595
117.355431 1.575
117.417633 2.568056
117.798996 6.112093
118.045006 17.04833
118.607941 7.980017
119.048401 35.95776
119.083862 50.879002
119.263725 11.55339
120.082375 19.89583
120.375809 2.632675
120.417107 3.030637
121.064835 668.440918
121.113548 7.068056
121.158737 1.169643
121.231483 9.333686
121.269798 5.844415
121.281288 5.534439
121.391258 3.226852
121.403923 2.167763
121.466354 1.446759
121.485916 18.13583
121.504349 1.006944
121.523117 19.558319
121.553329 2.017045
121.657043 2.001602
121.695419 1.666667
121.73851 6.818182
121.752991 2.020833
121.77536 7.987713
122.096306 1136.093994
122.144714 18.06061
122.271599 3.834936
122.290581 12.15804
122.310234 2.0
122.373154 2.19391
122.383347 4.541159
122.406441 6.026785
122.441078 2.367424
122.476677 1.724537
122.533485 2.839382
122.838608 1.506945
123.057777 4.208333
123.424675 3.003205
123.621864 2.695513
123.788246 3.683468
124.017609 100.254097
124.076263 24.07552
124.111107 1513.475952
124.147118 14.51923
124.156311 3.100833
124.20816 7.829942
124.276421 2.835938
124.283997 6.674903
124.405647 3.129808
124.448738 3.878788
124.496384 3.1875
124.6092 11.04762
124.694626 7.463734
124.703461 5.620192
124.870506 2.560606
125.096092 9.712392
125.166061 4.508152
125.302391 4.171027
125.310181 4.547348
125.567314 2.580357
125.887291 27.984301
126.352127 4.231304
126.396675 11.3138
127.054436 409.470398
127.100563 20.596569
127.205475 4.840278
127.267746 5.870512
127.398979 4.393518
127.465836 2.851974
127.521675 5.667658
127.618378 3.080128
127.811081 5.100595
127.936905 4.280093
128.061462 1106.154053
128.110001 7.220051
128.129318 2.770833
128.162521 7.280952
128.184937 5.609011
128.220459 7.726716
128.240494 57.744381
128.275848 10.14962
128.295731 3.185606
128.30336 2.416667
128.322556 25.22801
128.347382 9.599065
128.360046 30.61445
128.378281 4.014881
128.394058 6.489805
128.421448 7.741072
128.437073 8.93198
128.445023 9.666901
128.452911 2.339286
128.480408 5.708333
128.49234 2.833333
128.51236 12.79545
128.54158 14.7448
128.593552 10.23094
128.616592 6.3125
128.659164 3.080044
128.685638 9.005601
128.693726 17.42939
128.882019 6.111111
128.894882 6.336132
129.005554 5.345446
129.069748 7995.688965
129.117691 62.936581
129.133789 42.628078
129.147781 3.006944
129.154892 3.261905
129.167145 3.649305
129.176346 9.420138
129.211777 7.630833
129.227814 2.25947
129.274612 32.737728
129.28363 4.902056
129.29599 11.57413
129.324142 21.453369
129.344025 42.913689
129.378006 6.947511
129.385101 4.167385
129.412811 6.428997
129.432373 15.30493
129.448074 8.009869
129.456223 2.546875
129.475723 5.440476
129.490036 7.085875
129.531372 14.25176
129.543579 6.567819
129.551285 7.058624
129.559509 3.375
129.568481 3.881944
129.666199 23.38294
129.693954 3.67124
129.717667 5.351293
129.768417 19.026239
129.796982 6.720301
129.828659 9.89421
129.890015 8.15802
130.143417 2.19391
130.155914 1.645833
130.285736 6.260671
130.376282 2.336539
130.416016 3.002604
130.483551 2.363971
130.563065 2.060049
130.710999 8.0
130.853653 3.15308
131.048508 89.554253
131.392685 5.323253
131.514908 6.406666
131.573318 1.966667
131.682449 6.762236
131.966217 9.171474
132.289948 2.005208
132.406021 8.342471
132.431305 5.273438
132.879776 12.95337
133.027893 219.153198
133.06514 148.386902
133.098312 14.1282
133.851044 3.200758
134.070587 50.82349
134.134293 4.241905
134.427231 1.52381
135.042023 85.229988
135.079712 36.20002
135.307205 4.868056
135.316071 4.351293
135.372726 9.166961
135.615417 2.002976
136.289047 2.695513
136.901154 39.107689
136.92894 2.645833
137.056122 14.9119
138.052551 23.71492
139.03447 30.953621
139.073715 36.136459
139.879303 10.51449
140.059509 34.841831
140.106186 80.888077
140.129517 8.61638
140.454865 4.833841
140.872131 18.12401
141.068695 611.360596
141.119446 6.333965
141.185593 12.50516
141.231018 7.406703
141.247955 7.008152
141.271713 10.00407
141.280945 5.552631
141.289734 9.46939
141.306976 12.90226
141.319427 18.9636
141.333603 22.51417
141.35498 11.6702
141.365433 17.590759
141.391342 49.452
141.400528 32.862148
141.415192 67.274193
141.431854 27.74218
141.456421 92.815247
141.469147 5.378788
141.479294 18.34444
141.487213 4.734167
141.495743 6.571428
141.520844 3.520833
141.528854 2.541667
141.549088 11.63389
141.558167 4.969445
141.597076 12.48523
141.609268 11.4902
141.637512 5.675
141.653091 8.569963
141.662567 4.487179
141.688873 21.627331
141.703751 16.063271
141.746429 8.564664
141.769028 5.694445
141.804352 10.87073
141.839462 3.868421
141.856934 26.002489
141.967941 5.703703
141.992783 5.458994
142.013535 1.690476
142.040298 29.381901
142.100967 115.132301
142.122589 30749.830078
142.174271 67.688263
142.239685 10.77802
142.254074 3.358333
142.274231 18.794291
142.313263 28.634899
142.343582 28.90028
142.369568 10.60764
142.419403 29.739719
142.466721 53.554199
142.478287 9.762948
142.508255 64.68943
142.52002 15.50801
142.53923 49.62994
142.55365 29.22312
142.574509 41.684639
142.631531 23.768339
142.639359 17.854811
142.651031 45.310291
142.660294 4.244576
142.691498 32.25312
142.723495 1.520833
142.736832 63.128342
142.757904 36.202591
142.774002 22.42737
142.795639 11.94668
142.832138 5.917439
142.867798 16.015921
142.893951 16.66783
142.902115 6.173077
142.927399 6.673611
143.001938 2.340833
143.010574 14.0221
143.049072 18.07271
143.084625 1839.027954
143.205887 10.34694
143.239105 3.334936
143.247498 5.086693
143.296265 7.613095
143.322403 13.3344
143.347443 3.674819
143.386414 6.893383
143.418091 3.753472
143.490585 3.741071
143.592056 14.30247
143.632202 9.619758
143.662506 2.229167
143.714218 5.90625
143.761139 4.945216
143.785126 9.515
143.87706 7.480801
144.068924 1.501225
144.169159 2.370833
144.265244 4.198412
144.303574 3.740833
144.541443 5.081644
144.54953 1.666667
144.603439 8.201667
145.062134 74.532639
145.103043 72.564377
145.12442 3.453373
145.144073 3.170139
145.200348 7.570252
145.244675 2.333333
145.293213 4.150219
145.366013 4.802778
145.550079 3.826993
145.666809 13.11728
145.767914 3.55787
146.106033 33.369389
146.833832 4.44079
146.977203 3.338401
147.076569 74.394157
147.610519 4.505682
147.699295 3.714881
149.021286 3.215278
151.588913 6.082237
152.057678 12.77819
152.825012 2.501389
153.070221 77.293892
153.16925 9.414203
153.212387 10.6884
154.4189 1.592803
154.541473 1.677696
155.047256 186.536804
155.084198 300.2565
155.11554 2.334722
155.134537 2.0125
155.169113 2.875
155.195206 5.168478
155.295593 3.370471
155.351273 3.846037
155.372879 4.59375
155.864151 3.926282
156.09465 9.497249
156.272202 25.951521
156.463287 6.422222
156.603165 4.963235
157.064224 915.249573
157.101089 75.764236
157.195206 2.003788
157.208298 2.520833
157.236374 10.69979
157.247559 1.690476
157.365356 2.381944
157.662262 8.334459
157.680222 3.6875
158.108063 30.190531
158.143265 2.691468
159.080154 90.53022
159.216888 5.026175
161.359192 4.066123
165.06929 78.736687
165.091431 10.33356
165.471802 22.08383
166.076584 407.616486
166.142914 4.25
166.183212 2.548611
166.232635 5.88587
166.263947 6.166667
166.28656 14.8947
166.317795 4.881547
166.407394 2.560049
167.050125 19.334049
167.346786 2.5375
167.476685 3.053571
167.723877 6.111111
167.896179 4.940025
168.091248 69.844917
168.790009 6.893383
169.061371 37.084019
169.10173 165.336395
169.296555 7.00463
169.577362 4.911574
169.683929 2.458333
170.072922 27.72031
170.093048 38.776272
170.14122 9.122475
170.162735 14.61714
170.183762 7.227904
170.20311 2.00463
170.224045 3.742424
170.234894 2.011029
170.26384 5.323253
170.403671 2.851974
170.43013 4.67124
170.461914 1.833333
170.623505 4.545455
170.722519 4.387821
170.863663 6.446509
170.902786 4.21875
171.012451 27.84273
171.052902 2.6675
171.077423 32.032028
171.116135 2456.547119
171.171219 10.34883
171.18956 11.65874
171.212219 8.861742
171.230209 5.004167
171.248611 12.05364
171.297607 12.02083
171.38446 13.71226
171.407974 6.903296
171.434128 8.133333
171.467285 8.536044
171.487793 5.007716
171.617538 5.775678
171.635742 3.048611
171.669769 19.19408
171.708908 9.203869
171.831818 4.043269
171.848801 1.446759
171.918488 8.15097
172.083328 27.067419
172.566269 6.168651
172.717651 4.864268
172.877716 5.837323
173.024124 10.33333
173.059952 339.167206
173.153961 12.08333
173.165802 2.713542
173.216537 10.47284
173.251465 2.0375
173.385818 3.680021
173.917603 4.752541
174.486969 3.672024
175.082214 28.239691
175.149384 2.884615
178.075348 78.163017
178.429489 7.932398
179.08374 182.566101
179.678131 2.380952
180.12912 6.224915
180.321014 12.46014
180.458542 7.212121
181.060501 15.18602
181.100143 503.489105
181.393799 3.316886
182.058578 36.658329
182.074234 19.179489
182.089233 12.63315
183.06427 29.75561
183.078629 74.240379
183.100403 91.273643
183.353012 4.713362
183.47821 7.911526
183.553619 2.381944
184.073105 32.248711
184.111053 183.080902
184.629807 4.000833
184.729324 4.440476
184.804977 8.62349
185.058502 197.128204
185.098557 23.049629
185.386612 1.52381
185.467514 4.231304
186.089264 14.48674
187.071884 60.256889
188.096558 1.026786
188.106262 4.020833
188.137253 2.520833
188.1772 4.36397
188.216003 1.501225
188.236618 5.460227
188.254257 3.227273
188.430832 4.339799
188.660126 7.005747
188.701797 7.874281
189.102203 8.479167
189.126907 2206.124023
189.186127 7.222917
189.205231 10.15013
189.243546 2.220395
189.263809 6.501263
189.286621 12.21749
189.320374 13.12845
189.352203 10.64821
189.398575 15.23891
189.408691 10.41667
189.4422 2.229167
189.454895 3.282408
189.497269 5.221491
189.514282 8.864268
189.570801 20.281719
189.613739 5.273438
189.635422 4.990385
189.655334 7.049589
189.67012 10.4289
189.928528 1.514423
190.073196 44.047459
190.227676 3.246711
190.244034 1.0375
190.303024 6.994048
190.600311 2.034722
191.086945 38.770649
191.947479 3.343202
192.498276 10.71456
193.099426 42.942059
193.12941 3.500992
193.450348 3.0375
193.555984 3.010417
195.082443 28.43132
195.170944 2.204167
196.365936 3.0625
196.898346 4.493659
197.077789 16.10083
197.098053 19.860161
197.208191 8.680059
197.97554 2.836309
198.103058 8.421777
198.126648 17.40374
198.249283 3.201389
198.550171 6.72002
199.075058 72.587708
199.111359 875.748596
199.172119 3.453373
199.290115 6.552631
199.358994 2.481618
199.46637 4.000992
199.603989 3.333333
199.687546 2.008929
199.799698 6.926697
199.825226 6.017045
199.871368 4.200833
199.958054 3.440476
200.041656 1.863971
200.068253 48.167412
200.839645 5.365079
201.777405 2.85
202.06163 23.0741
202.119415 24.94245
202.156708 34.856129
203.064484 27.85626
203.081573 19.97543
203.650635 6.075
203.803619 11.68017
205.10112 55.851021
205.320526 6.182449
207.077667 14.92593
207.11673 20.39543
210.155762 1.908333
211.100998 47.283749
212.102142 39.853729
212.140106 53.993309
213.09079 19.191139
213.148453 24.02206
215.079697 46.766571
215.144836 0.836309
221.127289 2.86218
222.132919 19.51338
224.11232 9.349601
224.127472 1.380682
225.129028 10.30379
225.511627 1.946759
228.103317 7.061769
228.325012 7.56891
229.112701 7.763889
237.428284 6.676802
240.138107 5.785715
242.115875 10.62056
249.126205 5.336111
254.159317 15.66764
256.076019 9.534722
256.133362 63.866871
258.148804 27.50997
267.13504 26.49069
273.330414 5.357143
300.965759 3.502084
305.589813 2.520833
305.977661 5.660017
323.472778 4.7
346.81076 7.605927
349.439911 25.36471
358.231323 36.5942
367.833893 10.35417
369.819611 18.10714
373.985077 5.056548
426.573547 7.170494
434.037659 7.606826
443.479279 1.880208
591.527283 1.5125
618.118774 5.453373
625.078186 2.213542
670.746216 2.041667
681.314636 12.2286
743.538452 11.48162
845.721436 2.666667
858.147705 5.235577
860.584595 4.5375
877.124756 4.535201
1038.288696 3.504167
1052.57959 1.395833
1311.002319 2.64881
1324.962891 2.444444
1414.083008 5.015
1439.211792 21.32238
1519.536499 1.506945
1565.614868 23.005211
1639.981689 8.500534
