>compound QuetiapineFumarate
>formula C21H25N3O2S 
>ionization [M+H]+
>parentmass 384.174744
#inchi InChI=1S/C21H25N3O2S/c25-14-16-26-15-13-23-9-11-24(12-10-23)21-17-5-1-3-7-19(17)27-20-8-4-2-6-18(20)22-21/h1-8,25H,9-16H2
#inchikey URKOMYMAXPYINW
#Ion_Source LC-ESI
#Instrument qTof
#Compound_Source Isolated
#PI Sirenas
#Data_Collector Ed Esquenazi 
#Scan -1
#Precursor_MZ 384.174
#ExactMass 0.0
#Charge 1
#CAS_Number N/A
#Pubmed_ID N/A
#Smiles N/A
#INCHI_AUX N/A
#Library_Class 3
#SpectrumID CCMSLIB00000006403
#IonMode Positive
#UpdateWorkflowName UPDATE-SINGLE-ANNOTATED-BRONZE
#LibraryQualityString Bronze
#TaskID d19310cd93df49b68e9fcbec27720eb5
##Scan# 3
#SpectrumFile QuetiapineFumarate.mgf
#LibraryName fda_library.mgf
#MQScore -1
#Organism fda_library
#TIC_Query 0
#RT_Query -1
#MZErrorPPM -1
#SharedPeaks 0
#MassDiff 0
#LibMZ -1
#SpecMZ 384.174
#SpecCharge 0
#internalFilename spec-00000.mgf

>collision 10
100.077621 66.198227
100.227859 8.8
101.170433 5.811792
103.062744 48.754021
104.048973 293.11319
104.069244 115.132698
105.572037 10.75
108.005157 63.408112
110.014122 34.596561
111.09082 201.835907
111.20208 14.80887
112.074921 56.581402
113.037018 53.876259
113.106567 29.200001
113.510101 12.56108
114.029938 13.44464
114.091522 583.9823
114.123192 8.614534
114.338165 8.602632
114.960495 11.91844
115.05497 54.837009
116.069382 69.161919
117.058884 24.837351
118.064713 245.077393
118.085396 50.71796
118.347534 10.77733
118.853203 6.200926
119.072411 484.607208
119.145805 9.586267
119.361977 5.803571
119.430443 16.017799
119.628273 5.353125
119.749977 5.716667
119.779129 10.7125
121.045158 26.0277
124.265205 7.968421
124.738503 8.004592
127.051514 22.1122
128.062988 20.20326
129.634705 24.0026
130.062256 19.903469
130.087646 64.648232
131.332336 11.64853
131.483139 8.816072
131.537903 12.445
132.101273 3460.243896
132.152451 49.44022
132.166824 13.59342
132.262421 13.84167
132.291428 21.6831
132.302032 10.21731
132.322281 5.22
132.34726 13.71888
132.354141 8.661735
132.382843 7.833333
132.390778 26.52136
132.466354 11.38627
132.484055 13.06452
132.599258 13.94105
132.618408 9.200423
132.814789 11.41216
133.551193 10.14337
133.94635 9.24
134.014404 9.245
134.584396 13.89143
136.022614 123.6502
138.04393 41.01165
138.832779 11.83448
139.053879 1056.480957
139.101837 11.40035
139.118362 5.218182
139.129166 11.40064
139.331696 6.461735
139.385071 7.849391
139.488495 9.336111
140.107849 167.674301
145.092682 10.71842
146.115952 155.9664
146.341187 10.20571
149.03653 51.932079
150.041077 67.136543
151.053223 580.143799
151.494232 7.618939
155.079712 32.785782
156.099411 16.237881
157.102051 50.170479
157.130859 41.784199
157.278244 5.864362
157.302032 8.027702
157.312241 11.28804
157.440201 15.27655
157.483704 8.852083
157.661301 8.249138
157.749939 7.093889
158.016449 8.155769
158.091751 20.68923
158.116882 6324.13623
158.16803 13.33965
158.18428 11.65714
158.228561 8.605
158.26178 14.81237
158.274765 20.87801
158.289124 17.077881
158.304443 10.48333
158.344116 28.20467
158.378418 8.023529
158.396973 11.84032
158.416641 8.252631
158.44136 7.869827
158.470428 6.511539
158.480331 12.4186
158.533066 14.13886
158.589676 23.58214
158.651093 8.519681
158.686234 11.49419
158.762787 8.282843
158.952759 11.56802
159.300888 10.62007
159.405304 5.721
159.440475 8.456396
159.454224 16.471531
159.752945 8.472059
159.924469 6.426471
160.081085 33.43367
161.357498 6.33913
163.055298 44.453331
164.049118 81.078262
164.791504 5.665322
165.068665 138.730698
165.273453 14.73965
165.462616 12.09383
166.064133 232.290207
169.080841 49.52
171.109543 33.209728
173.12793 40.18359
175.025955 8.311171
175.06575 7.672727
176.047745 31.67931
176.185181 9.873485
176.39502 12.08396
177.032089 2.616667
177.056686 1380.925049
177.134995 9.185185
177.207962 8.696154
177.229019 9.826471
177.257034 21.01926
177.290695 17.39739
177.315475 10.65348
177.664856 15.74444
177.983276 16.200001
178.064758 2684.922119
178.122681 23.54257
178.276169 9.694811
178.303192 11.73889
178.350021 5.716667
178.442947 13.62775
178.55455 6.0025
178.940247 8.481756
179.363464 10.28138
179.518066 10.69878
179.639664 26.202499
180.080185 638.024719
180.766098 7.689286
182.020126 31.71616
182.110687 30.841999
182.175491 6.013158
182.231613 10.825
182.245773 12.60369
182.68721 7.878125
183.02562 5866.687012
183.084854 19.025
183.097488 8.827173
183.129929 14.02563
183.143173 16.571751
183.170685 7.75921
183.213394 33.854931
183.230652 11.761
183.280502 9.207143
183.334534 25.988251
183.411621 9.806896
183.440674 7.414063
183.457596 8.185256
183.497589 19.34462
183.545563 6.204167
183.610672 11.28152
183.777817 16.489349
183.85083 5.416026
183.915573 6.875
183.945236 15.07941
184.478745 5.97622
184.677811 11.70625
185.039459 13.81603
185.842224 10.56962
186.749008 11.11111
187.034958 15.44237
190.06369 13.19024
190.254837 6.710294
191.07222 72.643303
192.068192 179.929794
192.080124 66.599998
193.087433 281.492706
193.169037 6.607408
193.359314 7.225
193.464218 10.418
193.637222 9.097973
194.094681 389.516113
194.214828 12.0
195.32666 7.854348
195.526337 6.463158
195.984253 14.46512
197.017441 7.004592
197.046738 12.20172
199.044144 13.20588
200.052216 23.585369
201.038513 55.188099
201.57048 8.816667
202.059555 10.03478
203.071289 200.607101
203.461868 8.26875
204.07962 374.496002
204.116898 11.20459
204.828171 8.816803
205.075043 477.231415
205.357971 24.789049
205.651047 5.688044
205.984894 7.469262
206.090714 205.126297
206.814682 11.70176
206.894608 5.604412
207.090958 221.878906
207.571396 23.46059
207.809021 9.079348
207.831421 8.866667
207.921707 7.245
207.933807 11.43333
208.022873 169.488907
208.117447 15.93141
208.162674 8.298256
208.485077 17.026091
208.655548 15.00687
208.68811 70.156174
208.705124 10.14795
208.753876 87.759232
208.806061 51.67696
208.850433 41.28717
208.86853 36.78204
208.902298 42.418331
208.923981 60.986969
208.958862 60.421261
208.98616 43.568119
209.028671 4347.603027
209.105682 187.482498
209.126404 33.859089
209.170654 30.314421
209.210693 17.90637
209.225204 11.42045
209.242737 20.01512
209.255295 23.705589
209.279114 26.334829
209.378799 15.4088
209.508026 29.73628
209.539658 47.970188
209.585754 6.956481
209.735794 21.434771
209.933136 16.60556
209.944473 11.91115
209.993912 93.216393
210.011703 50.68055
210.037247 56052.761719
210.486908 61.112701
210.503983 31.00769
210.522537 21.24279
210.533768 24.70038
210.54718 35.479012
210.573883 34.03231
210.594284 24.221581
210.634659 15.48938
210.64946 24.41993
210.666138 51.904572
210.690582 16.17219
210.720673 85.912773
210.805008 53.097118
210.845367 55.93438
210.862579 31.271179
210.895416 22.4818
210.906876 16.55611
210.923492 65.645798
210.98262 44.785198
211.009415 41.86636
211.148392 33.12759
211.184662 15.30874
211.257767 16.325871
211.286499 10.45307
211.326675 10.60217
211.377213 7.8
211.4104 37.211819
211.453018 36.474899
211.640884 39.75098
211.676331 38.256771
211.70108 14.04091
211.73645 9.448015
211.772614 11.77028
211.954834 24.78554
212.022552 6.925
212.2491 17.049709
212.90361 16.281799
214.031509 8.795271
214.662277 5.839516
214.825455 6.792021
216.041275 21.192249
216.726456 9.000384
216.982605 5.5225
217.085114 63.193001
217.351639 9.202631
217.612869 6.4
217.818451 16.638081
217.834106 8.60041
217.937729 5.778125
217.978348 10.20047
218.048294 11.69031
218.08609 283.754211
218.132339 9.470349
218.395706 19.152081
218.420975 13.49601
218.489883 5.968182
218.56897 2.20119
218.718155 10.40326
218.753815 10.32308
218.935593 9.088953
219.045151 108.569702
219.091049 4968.106934
219.155762 68.516479
219.171555 9.209783
219.22937 13.84448
219.258698 6.446296
219.287033 10.05
219.352356 13.05125
219.371399 32.398338
219.436905 16.657141
219.461365 36.364201
219.511948 15.45331
219.614304 15.35062
219.64357 10.64615
219.698563 90.706818
219.735947 166.167206
219.779922 91.160454
219.802048 63.722279
219.828735 132.981903
219.855026 10.73389
219.887772 140.562698
219.90065 54.399429
219.913269 61.18
219.935318 100.653
219.96254 49.21809
219.980331 157.089096
220.001144 8.089893
220.01416 123.214699
220.054108 47.00119
220.073578 234.190399
220.174179 36.50214
220.21788 46.372849
220.246445 53.918919
220.267242 28.464081
220.306961 76.109833
220.355698 16.20056
220.37709 69.583641
220.450195 54.517502
220.500107 19.863041
220.540176 30.493839
220.584595 6.80061
220.607574 26.603821
220.646851 40.103191
220.723312 31.641541
221.027405 27.62994
221.107605 127593.796875
221.282669 11.80833
221.542404 70.254837
221.590073 173.577194
221.632462 33.876991
221.657211 92.61734
221.672379 25.62608
221.696869 1.203571
221.717468 32.627941
221.778183 163.975403
221.816986 53.280762
221.834244 10.47669
221.855377 45.029812
221.908829 14.22076
221.932495 62.77676
222.039032 166.210999
222.070145 45.67197
222.185059 38.573021
222.241013 12.95925
222.263687 27.919241
222.341537 15.2556
222.371414 91.980293
222.402542 49.010132
222.459091 28.78834
222.497192 41.838299
222.513641 18.318581
222.619904 39.410439
222.64035 69.316368
222.683838 24.916809
222.707443 16.873051
222.816833 36.56987
222.957321 25.84561
223.181595 75.555977
223.228546 15.425
223.281021 10.31842
223.305573 14.20271
223.342194 12.7125
223.432724 25.53809
223.524826 21.004999
223.560501 7.039516
223.716293 10.20263
223.799255 16.32836
223.984634 8.503125
224.009109 9.118422
224.052505 555.846619
224.190125 9.83077
224.221451 8.344643
224.247803 8.281383
224.345993 11.40263
224.452011 6.906132
224.49295 6.981097
224.57901 14.00208
224.643692 7.027273
224.853622 11.025
225.186203 7.679032
225.290756 10.12246
225.411087 14.85633
225.771271 8.603948
225.818344 19.600821
225.89299 9.917453
225.933365 7.416177
226.046783 11.31842
226.067871 770.851807
226.142578 5.621552
226.176285 5.955556
226.231522 8.80992
226.27861 5.49
226.583359 18.275089
226.844147 6.829878
227.034439 47.05307
227.07135 41.765141
227.100952 1.4
227.263504 6.429878
227.840775 9.479033
228.04628 44.264359
228.077515 19.33852
228.566803 10.94697
228.630814 5.914286
228.982559 10.76406
229.087509 19.727871
230.099655 99.749924
230.1362 15.50204
231.088577 225.3452
231.458038 11.22315
231.865021 5.209
232.099487 470.249786
232.242508 14.19595
232.368988 8.80992
232.644348 14.20143
234.113571 37.152031
234.630356 15.02561
235.038086 19.61216
235.057693 16.622271
235.119354 59.11084
235.305374 19.519011
235.868851 8.185256
236.050079 1547.187012
236.118729 44.418991
236.138382 9.240385
236.302643 12.11304
236.389862 13.41304
236.437805 7.733334
237.889633 9.602174
238.486954 22.755739
238.517395 6.904311
238.711334 7.136321
239.077042 8.027174
239.249115 6.85473
239.776978 12.26038
241.326172 14.87161
244.094818 14.20116
244.567917 5.621552
245.106842 921.90509
245.15036 8.406081
245.236786 16.411249
245.400833 10.88989
245.438095 23.50601
245.539337 11.02402
245.557938 31.31118
245.628845 17.816669
245.652267 43.98444
245.674408 10.66613
245.689758 19.81633
245.703583 38.250839
245.731735 28.07222
245.748627 22.203569
245.78833 47.419399
245.811584 76.675362
245.826355 7.034574
245.849258 27.28784
245.868195 11.825
245.894409 24.15803
245.952332 12.92
245.978058 10.46154
246.007492 19.19216
246.444046 28.559441
246.465408 16.925949
246.503128 12.80285
246.584091 15.74795
246.721848 7.093889
246.749023 9.495339
246.764343 9.25625
246.877182 8.078226
246.946228 11.43784
247.01683 9.200397
247.044281 17.21966
247.065308 95.69342
247.123108 36148.058594
247.30101 10.855
247.490387 36.910709
247.534714 22.696659
247.58873 16.28726
247.618256 71.304062
247.653595 40.68343
247.704178 58.443291
247.731461 54.719631
247.771072 54.36079
247.854782 25.80529
247.871063 18.200001
247.884644 16.57778
247.912308 65.881859
247.947281 20.725121
247.977432 44.237411
248.026825 24.223511
248.05394 46.817421
248.089935 13.65633
248.125748 1424.661011
248.180984 9.261539
248.317276 14.6817
248.340134 22.96834
248.359848 26.97167
248.884796 12.83049
249.00589 12.49412
249.04744 74.723953
249.093582 16.64183
249.223053 9.71413
249.599594 13.19054
249.615387 5.815385
249.710251 7.6
249.840714 8.877054
249.923203 7.800439
250.064499 147.020905
250.473495 10.21725
250.594635 7.710345
250.688705 12.86
250.717712 8.697059
250.876389 7.244512
251.063934 1577.697998
251.128281 10.642
251.217331 5.698256
251.26059 8.907558
251.296036 12.57692
251.313812 12.8
251.38829 7.203689
251.434311 15.09286
251.472214 47.288521
251.497757 20.97175
251.522583 80.052681
251.543259 23.13611
251.58522 87.75972
251.610641 158.552307
251.634064 111.251099
251.667191 98.518417
251.698624 100.166801
251.753418 22.864281
251.772202 84.624962
251.789124 35.891529
251.807281 82.291069
251.832703 20.967541
251.848572 19.448021
251.872894 10.36
251.903854 81.371597
251.93129 34.968941
251.959625 15.625
251.987579 23.56251
252.025833 25.93115
252.232758 31.21633
252.355637 27.65444
252.401627 36.130402
252.537292 24.094431
252.548447 17.214531
252.884857 10.21333
252.970581 28.977461
253.079605 80600.1875
253.139832 3.432895
253.250656 5.188235
253.449997 2.281667
253.549042 121.754501
253.683289 82.753883
253.715286 92.266533
253.764618 101.853104
253.795242 84.564682
253.827637 85.227501
253.853882 7.151508
253.884598 75.648743
253.927902 30.522791
254.023392 98.85614
254.147095 76.571297
254.176208 11.83916
254.195786 17.522499
254.239212 33.04393
254.34848 14.8
254.363968 21.952009
254.494995 23.729601
254.57663 15.76793
254.666031 14.40619
254.727203 10.00119
254.781754 13.20257
254.83876 21.04706
254.935608 42.400028
254.952713 12.6133
254.980118 8.605
255.011612 14.85806
255.125275 15.83642
255.346939 19.78274
255.375549 12.64167
255.396729 9.9
255.592484 9.49877
255.6315 12.41276
255.665176 9.65473
255.748047 13.30874
256.226685 7.733334
256.32724 12.70476
256.572083 8.457075
256.981659 10.00227
257.347229 8.623114
257.480133 11.11136
257.805969 8.501786
258.084412 6.204246
258.241638 19.27264
258.610077 6.409884
258.652161 14.93019
259.122772 10.15385
259.144379 41.34922
262.064697 93.130173
262.134186 72.794563
263.064972 240.214096
263.263092 7.632692
263.297272 9.156356
263.549164 5.977941
263.940857 8.61875
264.068848 520.397522
265.15741 7.443104
265.747803 9.737281
267.099335 23.237499
268.742767 7.248076
269.994446 8.629348
277.075562 203.582504
277.344635 15.35125
277.409821 30.681999
277.433014 6.45
277.476959 30.860741
277.50058 11.8
277.532196 20.419531
277.600372 91.746941
277.678162 15.23077
277.711456 12.1931
277.725769 11.962
277.743683 13.60263
277.772278 10.43077
277.841797 18.359341
277.894226 9.008562
277.950592 88.123177
278.200073 29.4484
278.218658 22.263941
278.272461 9.05625
278.433594 9.866667
278.578979 9.807692
278.654449 7.008334
279.020416 7.264286
279.048767 177.893097
279.094971 26050.289062
279.356812 79.951103
279.410553 9.907438
279.459747 34.360119
279.48764 38.067459
279.522614 47.13966
279.570984 28.642111
279.642578 31.89748
279.673065 38.657951
279.704803 69.861717
279.737091 34.37896
279.770599 17.38151
279.805969 27.238291
279.832092 20.2001
279.888092 44.05344
279.9133 19.145189
279.956848 34.401001
279.981415 26.297569
280.027008 16.009069
280.191833 13.01952
280.241058 43.316872
280.288544 45.739529
280.505005 7.417308
280.593689 18.049999
280.76651 7.810526
281.174683 7.636818
281.688934 16.78581
282.289978 8.843103
282.389709 11.46
282.423492 18.314289
283.818512 10.07763
283.876221 7.220763
284.210419 6.225
285.17215 8.502501
287.816956 7.778571
290.161163 14.82336
292.087341 16.436689
294.105682 7.869444
294.482605 9.226471
295.110229 10.40045
307.360382 7.552027
307.991852 20.0
308.654816 17.615511
309.160278 82.568741
322.1297 13.47219
340.147095 8.096052
341.129761 43.15588
341.544647 12.44167
384.174744 60.444752
384.55191 1.402273
430.179932 29.45331
459.571808 28.42424
572.973755 10.40634
574.773254 8.062069
627.925842 7.443104
631.649841 35.468899
820.256714 11.25633
829.49231 29.027149
1002.949951 17.552441
1025.216309 16.205231
1530.255005 9.611793
1556.091431 15.91875
