>compound MLS000701321-01!N-benzyl-N-(4-quinazolinyl)amine
>formula C15H13N3
>ionization [M+H]+
>parentmass 236.118851
#inchi InChI=1S/C15H13N3/c1-2-6-12(7-3-1)10-16-15-13-8-4-5-9-14(13)17-11-18-15/h1-9,11H,10H2,(H,16,17,18)
#inchikey FVWANTDQRFSCAL
#Ion_Source LC-ESI
#Instrument qTof
#Compound_Source NIH Pharmacologically Active Library
#PI Dorrestein
#Data_Collector VP/LMS
#Scan -1
#Precursor_MZ 236.122
#ExactMass 235.111
#Charge 1
#CAS_Number N/A
#Pubmed_ID N/A
#Smiles C(Nc1ncnc2ccccc12)c3ccccc3
#INCHI_AUX N/A
#Library_Class 1
#SpectrumID CCMSLIB00000086172
#IonMode Positive
#UpdateWorkflowName UPDATE-SINGLE-ANNOTATED-GOLD
#LibraryQualityString Gold
#TaskID d252d724072548979f1f6f1ced849daf
##Scan# 1393
#SpectrumFile p5-H02_GH2_01_18477.mzXML
#LibraryName Pharm_Active_Library.mgf
#MQScore -1
#Organism Pharm_Active_Library
#TIC_Query 0
#RT_Query -1
#MZErrorPPM -1
#SharedPeaks 0
#MassDiff 0
#LibMZ -1
#SpecMZ 236.122
#SpecCharge 0
#internalFilename spec-00000.mgf

>collision 10
45.489109 148.0
45.756638 180.0
45.939919 56.0
46.047905 176.0
46.123569 176.0
46.895901 172.0
47.01046 140.0
47.147022 148.0
47.200336 88.0
47.971943 172.0
48.181709 184.0
48.486126 164.0
50.379375 172.0
50.438728 288.0
50.965931 76.0
52.852982 152.0
52.976048 196.0
53.123913 192.0
53.174698 172.0
53.453724 136.0
53.946701 180.0
54.022743 140.0
54.34359 136.0
55.698849 160.0
55.774632 148.0
55.88319 180.0
55.907001 88.0
56.199062 172.0
56.830479 176.0
56.968601 196.0
56.995644 104.0
57.072304 136.0
57.105389 228.0
57.65115 220.0
57.914402 120.0
58.333202 184.0
58.613243 160.0
58.87257 120.0
59.498825 152.0
59.698574 212.0
59.998825 172.0
60.182426 184.0
60.587643 132.0
60.843536 156.0
61.603512 80.0
61.709785 152.0
61.811455 260.0
61.968033 200.0
62.352486 152.0
62.437382 196.0
62.536503 164.0
62.922714 164.0
63.087013 148.0
63.725708 264.0
64.239937 180.0
64.326111 104.0
65.594986 60.0
66.16848 80.0
66.539757 228.0
66.666451 176.0
67.133667 36.0
67.523987 256.0
67.561607 168.0
67.694183 132.0
67.723663 152.0
68.538506 92.0
68.652252 192.0
69.008919 204.0
69.084999 204.0
69.254143 176.0
69.434494 72.0
69.524086 56.0
69.573875 132.0
69.638641 168.0
70.513351 240.0
70.637077 92.0
70.687271 204.0
70.967003 180.0
70.992157 148.0
71.450706 200.0
72.121864 192.0
72.692612 204.0
72.82164 68.0
73.080032 172.0
73.240059 168.0
73.29287 112.0
73.681885 76.0
73.970894 168.0
74.161026 168.0
74.215881 172.0
74.538582 180.0
74.684715 132.0
74.82238 76.0
75.706451 152.0
75.784401 176.0
76.218185 244.0
77.059761 184.0
78.037766 116.0
78.132736 164.0
78.201363 68.0
78.410957 200.0
78.564362 180.0
78.878693 188.0
79.149376 164.0
79.511017 92.0
79.615761 136.0
80.22963 240.0
81.723328 196.0
82.408478 132.0
83.623474 168.0
83.86937 40.0
84.155777 172.0
84.539642 236.0
84.629341 192.0
84.843697 160.0
84.951897 156.0
85.253014 160.0
86.703575 152.0
87.026344 160.0
88.055717 192.0
89.039406 220.0
89.862015 180.0
90.377831 180.0
90.517906 172.0
90.714951 36.0
90.73391 120.0
90.807861 200.0
90.824928 192.0
90.914101 100.0
90.955856 204.0
90.973343 172.0
90.99762 168.0
91.018341 448.0
91.054733 15168.0
91.117851 236.0
91.178169 84.0
91.209076 108.0
91.366325 52.0
91.38916 184.0
91.415794 84.0
91.663353 32.0
91.77581 164.0
92.057404 1432.0
92.088783 108.0
92.375504 56.0
92.409935 80.0
92.478828 44.0
92.516289 140.0
92.691406 188.0
92.741234 100.0
92.771904 124.0
92.812164 112.0
93.059685 196.0
93.100006 40.0
93.226799 100.0
93.286377 196.0
93.317139 36.0
94.095512 108.0
94.689163 88.0
102.177719 136.0
102.387054 120.0
104.274681 124.0
108.089226 160.0
108.331467 108.0
111.862808 144.0
113.455658 100.0
114.61187 144.0
115.172943 188.0
116.969856 36.0
118.815384 144.0
122.977585 168.0
124.742989 164.0
129.040787 156.0
129.935394 108.0
130.057938 172.0
130.682892 152.0
131.061066 384.0
131.434799 156.0
131.590012 108.0
131.948715 224.0
133.087418 172.0
138.962296 168.0
141.053558 248.0
142.977127 72.0
144.076355 120.0
144.231689 208.0
146.067596 220.0
152.065506 176.0
152.955276 192.0
153.226166 204.0
155.535904 196.0
156.316284 152.0
157.056351 168.0
158.070465 708.0
159.035416 160.0
159.072617 132.0
165.074966 216.0
165.079224 172.0
169.570526 108.0
172.185272 176.0
174.991104 120.0
178.989334 156.0
180.925049 112.0
182.096848 116.0
184.295059 168.0
187.794342 96.0
192.407242 64.0
194.095001 168.0
195.075058 216.0
197.014648 236.0
198.313034 104.0
198.969437 116.0
205.302155 76.0
209.111389 224.0
212.914444 160.0
213.967056 104.0
216.946945 116.0
219.087555 144.0
225.140381 156.0
234.121719 120.0
234.478165 208.0
236.118851 5508.0
236.23999 152.0
236.340958 56.0
236.732773 36.0
236.812393 80.0
237.04216 180.0
237.119812 964.0
237.557251 76.0
238.125687 404.0
238.214188 36.0
238.238754 44.0
238.530685 80.0
238.761292 96.0
239.61702 68.0
250.222382 40.0
254.960861 136.0
274.870453 84.0
292.909943 132.0
304.901367 112.0
336.905182 112.0
435.284363 88.0
464.510956 68.0
465.858887 72.0
493.700439 60.0
520.282349 88.0
672.597717 148.0
707.435608 200.0
711.501709 96.0
715.701965 64.0
719.903931 176.0
733.860779 188.0
754.563477 208.0
757.2229 208.0
768.172119 172.0
774.961121 120.0
782.642761 64.0
786.628967 176.0
788.723694 128.0
799.852539 176.0
800.454956 132.0
818.131592 192.0
821.642151 88.0
823.731567 172.0
832.069702 188.0
835.541016 168.0
836.058838 132.0
838.385498 240.0
839.838379 188.0
842.534119 128.0
843.799805 216.0
854.866943 192.0
856.625305 148.0
864.893738 84.0
870.927307 196.0
882.672913 192.0
884.429993 224.0
887.160767 96.0
888.51886 112.0
892.141541 60.0
893.812805 168.0
900.979431 208.0
903.149353 228.0
905.591431 60.0
905.89093 196.0
906.585938 44.0
907.940796 204.0
912.474365 192.0
916.133423 72.0
916.778137 52.0
916.826355 132.0
920.463928 216.0
924.568542 156.0
927.633362 148.0
928.852173 148.0
930.0354 244.0
930.891479 40.0
932.094177 180.0
934.380371 144.0
934.879333 152.0
935.116638 156.0
938.881775 168.0
939.943237 176.0
939.985962 92.0
940.559631 172.0
940.718323 184.0
941.854126 168.0
945.969421 148.0
950.148926 120.0
950.756348 140.0
953.354065 196.0
953.464722 156.0
953.778137 192.0
959.398376 188.0
964.726013 196.0
969.423767 160.0
972.599182 140.0
976.743713 132.0
977.994446 120.0
979.239685 160.0
980.579224 164.0
985.246643 168.0
987.87854 152.0
989.756104 196.0
990.651733 120.0
992.130676 180.0
1002.753723 140.0
1003.012146 192.0
1008.693237 120.0
1010.128662 164.0
1012.305847 204.0
1015.588745 168.0
1015.658569 148.0
1025.788086 188.0
1025.858154 136.0
1027.828979 204.0
1028.44165 160.0
1034.597412 132.0
1034.866333 196.0
1035.327393 144.0
1037.262329 116.0
1040.3479 196.0
1040.643188 100.0
1041.702881 156.0
1045.419067 144.0
1045.625 172.0
1048.935669 160.0
1049.135498 108.0
1051.251099 172.0
1053.685425 160.0
1057.610596 168.0
1060.752197 216.0
1067.198853 236.0
1070.087646 220.0
1074.617432 108.0
1074.774048 136.0
1075.629028 140.0
1077.646973 152.0
1078.17627 156.0
1082.133789 152.0
1083.437012 180.0
1083.88916 136.0
1087.502563 160.0
1090.727661 212.0
1092.0625 144.0
1093.477051 204.0
1093.63501 132.0
1098.299927 172.0
1099.157593 176.0
1103.391357 172.0
1105.216797 184.0
1106.421387 96.0
1111.883301 44.0
1113.045044 168.0
1113.66272 144.0
1119.415405 172.0
1120.267944 168.0
1121.080811 208.0
1122.573975 212.0
1125.316406 236.0
1125.656982 216.0
1126.612061 196.0
1129.065186 252.0
1131.045654 136.0
1133.168457 112.0
1133.295776 256.0
1135.179321 136.0
1135.984131 172.0
1138.299683 84.0
1140.059692 64.0
1140.597412 140.0
1143.71167 108.0
1145.327759 140.0
1146.129395 192.0
1147.524658 72.0
1149.710205 220.0
1155.825806 112.0
1158.62207 236.0
1160.329834 64.0
1161.19104 160.0
1162.229004 92.0
1162.670044 120.0
1165.855103 144.0
1169.398438 236.0
1172.674561 176.0
1177.552734 180.0
1183.63916 108.0
1185.495605 180.0
1185.646362 88.0
1186.605957 172.0
1188.293213 264.0
1188.588257 232.0
1188.63623 108.0
1188.986206 140.0
1191.814453 236.0
1194.049561 188.0
1194.187134 204.0
1202.082275 208.0
1202.358276 200.0
1202.599854 180.0
1206.551025 132.0
1206.647827 132.0
1207.09729 188.0
1208.875122 120.0
1213.904297 120.0
1214.285767 144.0
1214.88916 156.0
1220.758301 212.0
1221.8573 108.0
1222.782715 180.0
1223.910522 36.0
1230.827515 52.0
1231.721436 136.0
1232.371094 128.0
1233.307617 176.0
1234.866821 172.0
1240.005737 180.0
1240.762817 172.0
1241.26062 144.0
1244.284668 212.0
1245.064087 180.0
1245.928101 112.0
1246.525269 152.0
1250.231323 40.0
1250.82959 148.0
1252.413818 176.0
1253.097168 172.0
1253.329712 172.0
1256.98938 160.0
1257.264526 112.0
1259.891235 112.0
1261.099487 160.0
1262.294312 152.0
1262.449829 28.0
1263.015625 124.0
1263.871704 112.0
1264.452026 140.0
1264.947388 156.0
1266.030762 188.0
1266.866455 200.0
1267.263306 40.0
1267.553711 60.0
1269.340088 152.0
1272.746094 168.0
1273.711914 212.0
1275.822388 140.0
1276.156616 164.0
1278.141113 176.0
1278.390137 208.0
1281.608643 60.0
1281.736938 132.0
1283.083984 232.0
1287.20813 156.0
1292.740967 168.0
1294.365967 192.0
1298.924072 112.0
1302.692749 48.0
1303.497437 208.0
1305.114746 216.0
1306.135986 200.0
1306.948853 184.0
1308.669067 168.0
1311.824585 124.0
1317.027344 152.0
1318.443359 172.0
1320.670166 140.0
1322.023071 156.0
1323.980713 208.0
1327.17334 236.0
1329.269653 168.0
1330.98999 64.0
1331.05542 28.0
1331.280518 184.0
1331.556519 224.0
1333.96875 160.0
1336.194092 224.0
1339.13501 200.0
1341.204224 128.0
1343.121948 176.0
1344.208984 188.0
1344.887695 136.0
1347.567871 128.0
1347.881958 104.0
1348.137817 84.0
1350.533691 196.0
1352.167358 180.0
1354.898682 200.0
1360.699829 232.0
1365.755615 224.0
1366.204346 152.0
1368.625732 176.0
1369.855713 144.0
1373.851196 172.0
1376.006104 180.0
1380.779663 168.0
1385.613281 64.0
1390.945312 132.0
1391.739624 56.0
1398.728027 140.0
1398.824707 100.0
1399.829834 140.0
1401.051392 176.0
1401.103516 120.0
1401.908203 140.0
1403.339355 132.0
1406.02478 184.0
1411.059448 352.0
1419.475464 176.0
1419.955322 256.0
1420.540405 120.0
1423.542603 192.0
1424.579102 164.0
1425.360474 216.0
1426.668213 240.0
1427.06665 140.0
1431.430908 148.0
1435.846924 140.0
1436.631348 140.0
1438.389648 140.0
1440.111206 48.0
1441.010132 160.0
1442.015137 124.0
1446.932007 164.0
1447.613525 176.0
1448.734497 204.0
1449.613403 116.0
1453.230225 236.0
1458.113037 108.0
1458.29541 176.0
1460.295044 188.0
1460.903564 208.0
1461.41333 56.0
1461.793701 132.0
1462.296021 124.0
1464.260254 140.0
1467.681885 112.0
1467.887817 216.0
1468.726685 148.0
1471.657227 216.0
1474.116699 128.0
1476.157837 168.0
1476.318359 248.0
1476.486572 196.0
1477.733521 104.0
1478.866089 60.0
1481.707031 160.0
1482.641846 108.0
1483.684326 76.0
1485.133545 220.0
1488.471924 188.0
1489.892822 132.0
1489.954346 172.0
1491.352905 172.0
1492.359985 160.0
1493.052002 104.0
1495.298462 240.0
1497.061523 200.0
1503.714722 220.0
1504.37854 152.0
