>compound Docetaxel
>formula C43H53NO14 
>ionization [M+H]+
>parentmass 808.3538818280905
#inchi InChI=1S/C43H53NO14/c1-22-26(55-37(51)32(48)30(24-15-11-9-12-16-24)44-38(52)58-39(3,4)5)20-43(53)35(56-36(50)25-17-13-10-14-18-25)33-41(8,34(49)31(47)29(22)40(43,6)7)27(46)19-28-42(33,21-54-28)57-23(2)45/h9-18,26-28,30-33,35,46-48,53H,19-21H2,1-8H3,(H,44,52)/t26-,27-,28+,30-,31+,32+,33-,35-,41+,42-,43+/m0/s1
#inchikey ZDZOTLJHXYCWBA
#Ion_Source LC-ESI
#Instrument qTof
#Compound_Source Isolated
#PI Sirenas
#Data_Collector Ed Esquenazi 
#Scan -1
#Precursor_MZ 808.35
#ExactMass 0.0
#Charge 1
#CAS_Number N/A
#Pubmed_ID N/A
#Smiles N/A
#INCHI_AUX N/A
#Library_Class 3
#SpectrumID CCMSLIB00000005882
#IonMode Positive
#UpdateWorkflowName UPDATE-SINGLE-ANNOTATED-BRONZE
#LibraryQualityString Bronze
#TaskID d19310cd93df49b68e9fcbec27720eb5
##Scan# 3
#SpectrumFile Docetaxel.mgf
#LibraryName fda_library.mgf
#MQScore -1
#Organism fda_library
#TIC_Query 0
#RT_Query -1
#MZErrorPPM -1
#SharedPeaks 0
#MassDiff 0
#LibMZ -1
#SpecMZ 808.35
#SpecCharge 0
#internalFilename spec-00000.mgf

>collision 10
101.02079 50.445511
102.930786 13.63636
103.051842 40.53875
103.057503 39.865238
103.920609 13.68116
104.0569 26.04167
104.446114 10.05
104.453224 21.00901
104.492363 2.695513
104.506584 3.402778
104.58828 8.049603
104.595467 15.24107
104.638214 12.00097
104.648933 19.89352
104.681664 4.297619
104.703125 6.446428
104.793648 4.013889
105.013229 85.136353
105.032501 8003.823242
105.069443 649.516724
105.093826 29.37219
105.121513 3.337963
105.128906 11.04435
105.146667 64.593689
105.159225 37.263489
105.165726 10.33333
105.175056 8.641026
105.189606 25.373699
105.20179 49.862598
105.247627 14.77844
105.257774 1.777778
105.266075 25.92222
105.282715 10.92647
105.29216 29.4
105.305649 4.481482
105.332031 20.251711
105.350082 8.782407
105.368996 4.069444
105.424362 16.45833
105.441071 13.49359
105.458298 13.225
105.465614 3.490385
105.482979 16.377451
105.540482 3.678571
105.629524 13.09524
105.733635 5.856061
105.870758 11.34722
105.969414 4.066667
106.035065 71.165871
106.524231 5.422101
106.554337 4.408333
106.982101 3.760417
107.047745 122.550301
107.084404 342.986786
107.119606 12.52134
107.17289 6.66821
107.23053 3.034091
107.518913 9.041667
107.652412 7.102564
107.681412 8.242816
107.834778 2.208333
109.025558 22.901751
109.063332 152.618607
109.097504 52.339722
109.141266 3.080128
109.291351 25.39646
109.694176 5.680555
111.549255 9.561992
113.054031 27.08333
115.054047 37.337559
117.048439 42.320648
117.067238 40.516392
117.716805 21.00528
118.063065 317.452087
118.109695 3.345238
118.16256 5.669872
118.389633 2.347222
118.53521 17.76333
118.695541 11.00694
119.047447 1132.395996
119.083969 458.408813
119.129181 2.003788
119.189674 7.162634
119.281723 13.15188
119.303093 10.74167
119.311249 9.960366
119.338234 9.764205
119.459488 4.66886
119.614929 5.208333
120.076508 40.66827
120.349167 12.13611
120.50808 5.703947
120.643913 14.85952
120.69577 9.8
121.024521 43.573959
121.063721 1458.724976
121.09906 822.410889
121.123367 20.414551
121.129921 12.0819
121.145439 6.531863
121.161339 4.35307
121.1959 18.356741
121.226593 6.615
121.303062 11.41975
121.341385 10.73333
121.356949 4.898148
121.36438 7.130208
121.392845 19.15151
121.43808 17.023399
121.470795 7.075
121.549469 3.080128
121.682228 9.116667
122.055267 18.694639
122.201256 13.91241
122.232704 10.48522
122.328247 4.0
122.478355 2.680556
122.543327 11.44444
122.57077 6.371913
123.042229 368.208496
123.078934 395.569611
123.115898 167.719894
123.918221 4.041667
123.938004 12.66935
124.014252 7.291667
125.056152 73.670128
125.092659 26.835211
125.145454 16.40238
125.410156 7.69697
126.622787 19.58333
127.036575 26.055559
127.071449 33.00042
128.057632 8.765873
129.05014 26.66748
129.070374 122.931999
129.11882 5.76923
130.075836 48.008541
131.046219 45.09697
131.083817 293.091187
131.525482 4.061275
132.360107 2.367424
132.433258 33.13636
132.62999 10.45581
132.757187 7.399193
132.98175 16.67244
133.063248 677.16333
133.099747 538.227905
133.132248 5.166667
133.146927 10.59314
133.262741 11.32003
133.357117 7.291667
133.42009 7.481667
133.45845 20.26136
133.529007 7.442204
133.688766 2.700758
133.990616 20.33333
134.193542 10.27222
134.389313 4.802778
135.043991 82.430618
135.07814 270.354095
135.112442 14.1
135.213791 3.375
135.37175 2.816667
135.508133 6.818182
135.564911 8.111112
135.755219 6.490385
136.073883 1018.231995
136.113098 10.00833
136.23587 15.04167
136.263382 16.363331
136.279465 10.00219
136.304016 20.12011
136.316391 10.16329
136.3405 14.04025
136.372986 2.347222
137.020462 29.869841
137.059052 328.209106
137.094681 507.474915
137.141891 2.683333
137.161987 4.017857
137.21077 5.694445
137.264313 6.345238
137.583328 4.363636
137.814774 6.552536
137.888458 2.722222
138.64592 7.708333
139.072098 164.842896
139.10881 57.087959
139.358902 5.121212
139.420624 5.003788
139.488297 10.83333
139.510941 12.19444
141.05426 84.319794
141.065369 115.206902
143.082428 121.739197
143.51683 5.415
145.063034 175.6026
145.103088 75.386749
145.181168 5.963235
145.28511 9.486112
146.053528 16.34314
147.042923 288.518585
147.079941 439.4151
147.117401 12.53452
147.132568 5.375
147.178238 3.333333
147.272842 19.366871
147.440033 4.8
147.558319 5.678764
148.159012 1.6875
148.400482 6.095238
148.510681 5.674242
148.871414 9.32545
149.021088 39.979599
149.057358 612.127625
149.094086 1082.051025
149.160004 1.675
149.181793 18.87772
149.228699 3.555556
149.287537 20.8561
149.410828 4.677083
149.436722 16.044451
149.609131 13.85688
150.228119 2.416667
150.301392 4.59375
150.33667 11.6875
150.509949 6.67803
151.073547 522.734009
151.110657 401.938599
151.159332 5.362179
151.168045 8.791667
151.218491 29.79335
151.266479 5.337121
151.306976 8.833333
151.340149 30.236931
151.356247 16.919189
151.372009 5.816667
151.638809 7.2
153.086655 62.566669
153.095398 9.427083
154.056412 6.001984
155.06366 3.760417
155.081329 18.777781
155.288925 10.05357
156.461716 14.00833
157.044937 58.551571
157.058441 11.24575
157.098663 236.028107
157.176178 3.080128
157.190292 11.14881
157.292252 5.761905
158.233429 3.335784
159.078064 701.078674
159.11319 139.814194
159.145782 5.558333
159.201859 3.666667
159.408401 3.010417
159.70282 6.369253
160.021713 8.583333
161.05571 358.330597
161.094925 800.81311
161.132599 42.873402
161.14682 5.721491
161.20549 17.006821
161.241592 9.259408
161.722702 3.055556
162.130157 17.747549
162.172729 4.387821
163.037399 63.948792
163.072311 297.660187
163.110062 181.091995
163.144501 49.53186
163.217072 9.687925
164.356812 10.12255
164.606842 8.135
164.762955 2.669872
164.901413 6.673077
165.05217 742.892578
165.089432 273.064911
165.125549 8.380952
165.203842 7.613636
165.304337 4.963235
165.415558 3.055556
165.536301 4.760417
165.639343 7.001016
166.589523 3.6875
167.071243 311.600586
167.277603 9.363334
168.052414 17.43539
168.165176 2.0
169.083862 26.92803
169.099442 279.247406
169.200897 16.74107
170.487457 11.75725
170.668335 9.240079
171.080215 514.727417
171.114441 270.500488
171.150848 13.99457
171.270035 10.24282
171.352875 11.57407
171.401703 3.380953
171.798309 10.00758
173.055679 227.242203
173.094711 388.614105
173.130981 71.315742
173.154968 6.09375
173.196335 5.160714
173.310913 20.690689
173.344803 14.52381
173.402405 5.666667
174.395111 5.884804
175.074921 271.888702
175.10759 230.0905
175.27652 3.055556
175.620865 11.79167
175.64061 9.535257
175.691284 7.031565
176.374405 6.00641
177.051651 358.210785
177.087448 792.551208
177.121216 103.999298
177.218246 8.881667
177.238846 17.091221
177.271957 9.729167
177.333405 6.025641
177.503525 12.44048
177.816376 16.75362
178.070801 87.44503
178.108871 2.916667
178.236588 10.34568
179.068085 328.849915
179.100525 45.638039
179.143417 4.083333
179.166702 3.727941
179.18045 10.32747
179.224258 34.823662
179.241211 5.422101
179.297165 12.62681
180.063583 843.823975
180.111038 84.702652
180.138199 2.893518
180.164627 11.20417
180.206238 4.339286
180.32338 7.668651
180.44487 11.77011
180.931244 15.72202
181.086609 94.666656
181.096558 73.565529
182.079117 2866.188965
182.136337 11.92188
182.154907 2.416667
182.164963 33.353699
182.187943 24.643801
182.231461 10.248
182.349426 7.71875
182.45993 9.88469
182.615036 4.668478
182.760803 6.33477
182.805573 16.589741
182.93486 11.49667
183.114838 461.15921
183.292999 4.669445
183.386948 16.375
183.448517 22.76042
183.739624 12.00893
184.141556 2.008333
185.092438 375.310303
185.130188 153.075394
185.20166 15.59572
185.309296 7.070402
185.437164 7.463542
185.796875 2.720238
186.430405 5.510417
187.073685 296.644409
187.109467 349.349304
187.170334 4.340909
187.323364 10.29167
187.356125 10.86613
187.389328 8.024224
187.446487 3.0
187.904007 3.0
187.951691 3.490385
188.034012 33.497169
188.172028 15.18667
188.424164 4.375
189.051926 105.710098
189.08931 441.743988
189.124176 176.624207
189.145935 3.669118
189.638855 5.481482
189.698166 4.013889
190.022537 22.16667
190.080811 42.841461
190.480774 3.333333
191.069366 345.079102
191.103699 325.983307
191.276321 14.09921
191.357666 3.823718
191.516861 12.34783
192.111267 86.010406
193.082489 62.140289
193.096848 90.709648
193.442764 7.291667
193.471664 5.702587
193.493454 8.775641
194.058884 5.414216
195.057816 57.512932
195.068741 48.129478
195.113785 322.970306
195.300232 10.00379
195.708832 11.04537
195.918152 4.335145
196.142654 6.362179
196.527298 6.49359
196.800507 7.681667
197.056168 42.04348
197.093796 635.643982
197.130737 242.654602
197.168503 8.967424
197.200974 6.535
197.2314 12.07738
197.259567 7.921875
197.772903 8.0
198.06633 97.670631
198.252701 11.04545
198.374908 16.894051
199.069992 45.315319
199.081924 30.48576
199.108917 321.629211
199.198334 8.673612
199.243347 3.402778
199.48909 2.083333
199.551941 5.629902
199.685547 5.742284
199.734177 5.388889
199.803696 48.768082
199.867218 6.88587
200.162674 8.75
200.24144 6.355556
200.334976 5.027778
201.088577 309.290009
201.122665 273.441498
201.159775 55.135159
201.261765 7.805555
201.31102 13.43707
201.380234 6.671568
201.454559 16.930969
201.503662 5.005952
202.038498 16.74107
202.567047 3.490385
203.067123 106.377197
203.104813 75.443367
203.325073 5.7
203.666077 21.823151
203.706635 2.816667
203.841309 2.354167
203.871231 27.092819
204.32338 5.742284
205.046295 34.14706
205.082275 89.747704
205.095367 41.697632
205.116623 226.478104
205.269379 5.88587
205.653259 11.00417
205.683334 17.898081
205.9207 16.97436
206.107239 28.35161
206.16925 4.761905
206.332306 4.054824
206.842331 9.057971
207.057541 15.05342
207.097595 93.473259
207.112808 123.728203
207.139038 2.854167
207.463211 5.005952
208.062302 147.426498
208.083786 52.240391
208.396271 6.391026
208.622284 1.675
208.663071 6.736111
208.773102 4.341667
209.092361 226.324097
209.129959 259.695801
209.185486 4.684524
209.296097 12.63462
209.483795 5.414216
209.708405 10.36218
209.89566 5.691667
209.99649 24.054541
210.016525 4.66886
210.152359 13.75
210.288849 10.83
211.072388 70.394638
211.108658 628.6427
211.144684 354.365601
211.182739 2.00463
211.237534 11.43056
211.256866 12.00119
211.278992 12.18841
211.334427 11.28125
211.409912 7.672619
211.707657 9.185897
211.883087 16.156919
211.896164 5.76923
211.93718 14.28656
212.082642 39.736111
212.18338 3.226852
212.840973 4.761905
213.048065 100.812897
213.069138 124.784302
213.086868 229.013702
213.124695 350.631805
213.164078 3.011905
213.285309 17.683331
213.301422 4.034091
213.321564 10.0
213.336807 8.333333
213.348511 23.26535
213.372375 14.0119
213.433395 15.3555
213.65451 2.875
213.800644 7.190217
214.21553 11.34028
214.812927 10.20833
214.891235 22.43803
215.072174 36.603329
215.102585 369.982086
215.140747 19.10833
215.850677 25.555559
216.37616 2.027778
216.406693 15.04167
216.758621 12.17763
217.077667 19.285721
217.121063 51.519039
217.145523 12.44444
217.508392 5.76923
217.772186 21.94286
218.075592 19.347219
218.890564 10.07562
219.059006 36.409592
219.071823 38.866661
219.096069 51.740509
219.131851 83.259857
219.16362 1.666667
219.731659 15.33415
220.123306 72.503258
220.349762 3.333333
221.07933 136.807007
221.127197 392.591003
221.412201 23.760099
221.79808 7.69482
222.100922 65.131317
222.215363 2.208333
222.280182 7.682971
222.348114 7.041667
223.107147 862.939026
223.145004 185.018799
223.193985 3.335784
223.52153 9.337501
223.720413 27.24794
223.838913 13.43843
223.915802 14.26239
224.318008 21.137751
224.479568 14.36574
225.042877 5.160714
225.088867 382.890503
225.12384 496.030609
225.162521 236.908005
225.241913 11.22685
225.272522 3.333333
225.387421 10.78392
225.408371 9.907852
225.433685 11.05482
225.842026 6.095238
226.016266 28.5928
226.067062 294.977814
226.234299 8.377451
226.265732 15.99565
226.427948 11.73284
226.585022 6.338235
226.616409 8.349638
226.632156 8.0
226.899536 5.573412
227.102463 290.21701
227.13855 329.750092
227.251022 7.98077
227.270386 19.26667
227.392181 3.677083
227.455139 3.669118
227.812271 17.881849
227.880325 10.34347
227.896088 9.240384
228.08519 4.041667
228.106598 153.769897
228.162521 12.97283
228.947647 6.025641
229.07019 85.209641
229.084793 90.082947
229.11853 588.386719
229.160568 152.508804
229.231995 3.185606
229.267349 8.446428
229.43219 7.35
229.63266 3.703704
230.105652 24.383329
231.02919 2.0
231.08989 39.003201
231.13118 75.266243
231.379562 5.338889
231.732269 12.2
231.952606 2.722222
232.107681 40.409481
233.093796 45.99754
233.125595 60.498871
233.146225 7.482143
233.249161 15.68174
233.656464 14.3344
234.046265 37.511559
234.662888 11.87879
234.955811 16.46176
235.108459 84.448357
235.144989 474.386993
235.184647 2.782408
235.211838 5.334677
235.340149 9.921875
235.441315 5.702587
235.643936 4.367424
235.996689 5.8
236.076569 44.463711
236.120163 176.832794
236.413864 21.18116
236.67067 12.51724
237.069595 85.51519
237.124756 398.978302
237.158737 85.905167
237.259766 4.013889
237.334076 17.721149
237.39595 2.722222
237.46846 7.721491
237.704712 11.06061
237.763443 8.115741
237.822723 5.66821
237.96785 12.55408
238.096848 22.706699
238.132812 827.703613
238.523376 4.375
239.103317 345.275085
239.306931 15.33415
239.493912 13.33712
239.526459 6.337963
239.586044 12.61232
239.704163 10.12398
239.795883 21.163891
239.822678 6.033602
240.119797 26.44643
240.139511 92.981056
240.15184 20.05533
240.205338 5.366667
241.083023 13.42672
241.119644 702.825623
241.160706 52.253319
241.268692 7.666667
241.295715 9.852273
241.355972 9.494048
241.376862 4.844298
241.477402 5.428572
242.079712 10.47222
242.935898 12.07181
243.100983 185.708496
243.869431 6.00119
244.132248 36.967918
245.126877 191.628998
245.512863 11.13286
245.671173 19.06127
245.970917 6.146739
246.085556 3.034091
246.111313 32.819592
247.063446 11.5375
247.104034 43.332401
247.13002 115.191399
247.144608 48.779621
247.162354 30.710501
247.365997 3.640152
247.419098 5.208333
247.506516 11.8642
247.752869 9.68
248.092392 54.059311
248.119064 164.092194
248.56395 13.10833
249.123795 334.619812
249.17038 4.333333
249.508224 4.002451
249.607437 7.003788
250.333603 10.5307
251.104935 122.7882
251.139847 37.755371
251.225662 5.680555
251.556992 2.386905
252.146362 105.0
252.192627 3.782408
252.28511 3.672619
252.819275 11.42857
252.85939 51.874352
253.054047 1.6875
253.080948 47.593601
253.11792 126.759598
253.155731 1203.035034
253.225708 3.0
253.330948 14.93056
253.427032 12.60167
253.44165 3.760417
253.487473 11.13333
253.607834 8.108871
253.645599 3.926282
253.877716 11.3
253.924271 16.410521
254.086395 23.82143
254.239807 20.06456
254.333511 14.75
255.091812 50.531071
255.134827 592.366577
255.200348 4.002778
255.261475 13.14881
255.311508 11.40221
255.422684 4.003205
255.517487 3.490385
255.550171 10.71196
255.5784 12.07181
255.606201 13.225
255.756424 16.02043
255.845947 5.633333
257.083771 16.662939
257.110443 189.384003
257.151367 289.555908
257.232849 2.669444
257.846741 4.5
258.651215 7.605556
259.131805 65.425781
259.162994 86.28421
259.206451 3.669118
259.230011 2.520833
259.493042 2.013889
259.861969 16.340691
261.052216 9.667636
261.575226 11.73016
261.789062 10.10965
262.088104 20.156389
262.128571 50.90567
262.808899 5.160714
263.090912 10.33426
263.139465 1067.957031
263.215088 3.355392
263.338898 6.00463
263.407013 10.77394
263.440155 6.265351
263.473724 20.22975
264.724213 11.02885
265.028961 12.38844
265.081238 25.232401
265.121979 280.069092
265.153046 234.527695
265.19989 1.666667
265.280304 6.740942
265.420868 4.010417
265.480164 12.9767
265.530426 18.901239
265.619293 2.00463
265.698669 12.08013
265.766724 6.012097
265.969635 14.89015
266.385254 9.205209
266.476105 11.37778
266.588898 19.569441
266.688782 11.13038
266.748779 6.020833
267.03952 8.888888
267.097656 242.145798
267.132996 660.211304
267.183533 34.996689
267.197845 4.333333
267.226257 5.334677
267.317383 27.765301
267.343475 11.44167
267.368469 6.66821
267.409454 10.70588
267.449402 4.345238
267.635895 6.333333
267.722778 32.747452
267.759521 6.173611
267.875092 5.727941
268.497253 4.669445
268.819336 11.71102
269.082031 35.123459
269.114349 806.752075
269.149567 134.756393
269.19754 4.047619
269.224976 5.733334
269.266022 18.41465
269.309387 30.921301
269.351715 12.27
269.394409 18.40366
269.433899 6.25926
269.494446 7.843137
269.511841 5.742284
269.596954 8.355556
269.694 14.93426
269.713226 17.190479
269.957245 12.00079
269.974396 7.486111
270.431885 6.680555
271.092957 91.171417
271.162964 284.441711
271.383331 1.777778
271.410431 4.066667
271.53833 6.446428
271.617401 17.799999
271.735596 5.1875
271.813385 11.40789
271.914368 16.719021
272.024506 4.680556
272.134094 12.7002
272.45575 8.818548
273.124512 61.95295
273.143158 14.8931
273.564545 15.00287
274.042175 9.854167
274.705139 11.09399
275.091522 20.67568
275.120331 20.491671
275.160675 39.083511
276.111572 71.239738
279.131012 198.100296
279.383667 6.357143
279.5755 17.752119
280.099365 26.32243
280.152618 15.86012
280.247162 10.27222
280.699219 27.91374
280.902649 26.6444
281.025848 5.742284
281.096741 31.84639
281.150757 2422.36499
281.218353 4.675926
281.303772 8.493421
281.345917 13.86574
281.375885 12.68116
281.472015 13.10629
281.512756 19.152269
281.547546 7.300438
281.650208 10.0498
281.735931 11.60695
281.761169 10.03571
281.94223 13.69667
281.999115 23.259029
282.380493 15.70379
282.924957 6.510965
283.133362 216.301407
283.168304 43.896549
283.299347 25.315969
283.396698 16.703831
283.504028 13.33409
283.60437 14.05235
283.709137 16.676189
283.856079 6.673611
284.166412 31.78149
285.104553 119.133301
285.145813 527.288879
285.22879 12.68333
285.311035 6.05
285.512543 11.08135
285.622009 4.190476
285.810883 24.05542
285.829407 14.76923
285.849976 8.224999
285.998993 15.67465
286.752533 7.388514
287.126526 347.08371
287.177002 2.083333
287.613281 4.668478
288.404388 5.0
289.108521 7.969086
289.385986 12.10417
289.74115 10.7067
290.104584 88.152443
291.136444 874.643677
291.193787 3.708333
291.265015 11.11204
291.302734 3.490385
291.960114 17.3382
292.483398 4.120098
293.110229 41.814178
294.117157 42.80983
294.43222 7.748333
296.249664 4.674242
297.142151 200.528793
297.224213 29.415541
297.346466 16.6859
297.383087 20.60215
297.436432 11.02885
297.610565 10.73016
297.674255 23.07456
297.80368 12.47743
298.932495 6.703703
299.016479 10.00097
299.112762 11.9616
299.160278 947.256287
299.239105 7.011364
299.359894 3.857143
299.407074 10.7631
299.455841 4.427083
299.522766 10.82353
299.55835 9.0625
299.583221 5.225
299.880646 11.3952
300.054535 7.008333
300.082214 7.011364
300.546356 9.486112
300.582611 6.805555
300.962708 30.06624
301.101135 6.272727
301.136353 136.042404
301.415527 8.727273
301.552643 9.229167
301.767975 12.04167
303.115662 100.243797
303.146942 50.430359
303.16629 30.17289
304.626709 4.382936
305.133453 20.40761
305.155182 33.055111
307.107513 2.761364
307.405487 5.746795
308.59671 8.588542
308.687012 11.37255
308.761841 9.706141
308.998779 22.76552
309.145691 3178.710938
309.233673 19.42857
309.290863 43.475159
309.355072 7.334349
309.37442 9.75
309.412842 14.70621
309.44104 19.358761
309.471344 6.403736
309.491547 44.076691
309.552582 23.361111
309.599335 14.84722
309.619507 4.297619
309.68689 18.16288
309.730255 15.66667
309.808044 5.678764
309.824188 28.122419
309.916443 25.145741
309.997894 13.90542
310.034119 6.541667
310.261993 7.410257
310.588165 10.92045
311.003265 11.77632
311.117279 79.68029
311.18045 1.75
311.291565 6.506945
311.371429 9.083333
312.158386 15.42857
314.145935 15.00595
314.750732 11.00397
315.133545 9.855392
315.157318 126.812103
315.52887 2.333333
316.539246 5.136111
317.169159 189.608994
319.119934 30.712339
319.930939 14.83333
320.159576 31.51852
321.143219 18.380751
324.953827 5.541667
325.100891 31.346861
325.267731 24.857269
325.291809 18.75543
325.412048 7.006945
325.456696 42.958939
325.681946 6.710784
325.796661 18.002979
325.845551 23.32752
326.094116 18.52632
327.155273 2830.841064
327.229065 21.75992
327.282074 10.43651
327.316956 5.531863
327.342987 12.29825
327.402313 34.406631
327.512665 68.960938
327.549896 5.683333
327.573486 27.731779
327.612213 12.34259
327.650269 4.531863
327.675201 3.342592
327.71347 12.97961
327.765778 4.669445
327.887726 4.926282
327.973267 7.280303
328.053131 5.088768
328.269836 9.819445
328.324127 6.361111
328.634399 26.406349
328.655273 11.55254
329.135406 197.363403
329.264709 5.675
329.401917 3.386905
329.581116 5.265351
330.280518 4.094697
330.857697 6.531863
333.162994 46.863491
340.155731 34.68055
340.19223 2.053571
341.17157 65.777367
341.717682 3.291667
342.924194 6.827381
342.963623 9.739865
343.749634 10.89001
344.154327 64.677856
344.194427 8.097222
345.164581 1198.478027
345.215515 2.083333
345.24118 2.354167
345.344635 3.345238
345.386658 6.125
345.506287 3.080128
345.52597 4.016667
345.63562 3.34375
345.687378 4.382936
345.754211 34.373871
345.965546 5.339743
345.991425 7.001543
346.12735 9.5
346.237366 4.333333
347.144958 77.477608
347.223572 12.23184
347.280365 8.022223
348.130249 19.0056
348.388092 26.43841
348.909515 13.00872
357.161377 34.3493
359.171814 103.956802
360.096741 6.340909
361.603485 7.676802
362.365112 4.683333
363.174286 80.333817
365.160645 12.06187
366.029388 12.43011
369.1651 217.324799
369.953796 14.27161
373.454559 14.70519
375.136078 41.206669
375.185394 7.111111
377.190125 24.32303
381.186615 52.72905
384.807098 11.35417
386.380554 17.628469
387.17804 418.267609
387.308899 8.727273
387.842896 12.19032
388.023743 13.09339
388.804657 22.740801
388.944366 5.095238
389.084167 4.351191
389.736328 6.081667
391.153656 149.718201
394.444672 4.291667
402.147827 10.00417
405.185638 320.114105
405.461365 9.007978
408.672516 2.875
413.5289 4.340278
414.152679 20.8866
421.19751 6.173611
421.52594 4.054824
431.183899 318.048889
446.226288 9.006945
446.395386 8.333333
446.728363 17.273491
449.193207 154.231796
449.559692 4.964286
449.619934 11.0625
449.665985 8.888888
449.71521 5.157052
450.402863 5.763889
452.169128 5.001437
465.176788 7.708333
465.208679 14.37681
465.292389 6.906746
465.551025 6.666667
467.201843 207.410095
470.188141 33.31176
473.189362 41.054489
485.219849 13.09167
486.055542 5.801667
491.201996 129.317001
493.157043 19.85714
507.196808 12.025
508.223083 13.68889
509.215027 248.7556
509.682587 9.88469
510.562561 17.714199
516.191956 47.879379
527.219788 157.717697
527.278992 4.075
568.24707 6.724359
630.270447 21.65686
630.677124 6.734848
690.281372 29.253519
708.281921 36.05294
752.263672 15.80064
