>compound Prednisolone
>formula C21H28O5 
>ionization [M+H]+
>parentmass 361.202
#inchi InChI=1S/C21H28O5/c1-19-7-5-13(23)9-12(19)3-4-14-15-6-8-21(26,17(25)11-22)20(15,2)10-16(24)18(14)19/h5,7,9,14-16,18,22,24,26H,3-4,6,8,10-11H2,1-2H3/t14-,15-,16-,18+,19-,20-,21-/m0/s1
#inchikey OIGNJSKKLXVSLS
#Ion_Source LC-ESI
#Instrument qTof
#Compound_Source Isolated
#PI Sirenas
#Data_Collector Ed Esquenazi 
#Scan -1
#Precursor_MZ 361.202
#ExactMass 0.0
#Charge 1
#CAS_Number N/A
#Pubmed_ID N/A
#Smiles N/A
#INCHI_AUX N/A
#Library_Class 3
#SpectrumID CCMSLIB00000004492
#IonMode Positive
#UpdateWorkflowName UPDATE-SINGLE-ANNOTATED-BRONZE
#LibraryQualityString Bronze
#TaskID d19310cd93df49b68e9fcbec27720eb5
##Scan# 3
#SpectrumFile Prednisolone.mgf
#LibraryName fda_library.mgf
#MQScore -1
#Organism fda_library
#TIC_Query 0
#RT_Query -1
#MZErrorPPM -1
#SharedPeaks 0
#MassDiff 0
#LibMZ -1
#SpecMZ 361.202
#SpecCharge 0
#internalFilename spec-00000.mgf

>collision 10
101.061325 44.08036
103.040062 25.199289
103.054527 145.521896
103.07682 8.0625
103.16777 36.44186
104.557159 4.515625
104.596291 12.00658
105.069748 2551.437988
105.09861 31.52264
105.112823 3.504808
105.127579 9.75
105.169899 9.1875
105.202019 15.23684
105.219788 5.508929
105.244835 9.5225
105.316238 23.011971
105.338287 11.00298
105.426933 24.504471
105.612762 6.511364
106.185562 11.00893
106.531677 3.9375
107.049454 239.664597
107.085327 1838.473022
107.144882 4.083333
107.168022 22.71076
107.187744 15.0625
107.248466 13.34722
107.299782 7.067935
107.332573 10.01042
107.374855 2.5625
107.494469 11.50139
107.520515 10.22727
107.70401 18.91848
107.761543 12.0
108.358238 12.00179
108.405296 2.5125
108.498695 12.66071
108.511795 25.480261
108.561134 6.004807
109.065002 646.60553
109.100883 673.711426
109.126266 4.5
109.174706 11.48491
109.203659 3.0625
109.240021 25.50312
111.044014 125.581596
111.080719 272.045898
111.108673 3.666667
111.131615 11.5
114.293091 10.02778
114.642982 2.580357
115.038528 66.054413
115.053955 441.023987
115.101479 4.6875
115.130943 11.26645
115.161392 19.76593
116.060753 249.139496
116.091019 3.673611
116.104202 5.235577
116.471672 8.0025
116.497948 9.075
116.520485 16.637501
117.005417 12.5928
117.068436 1303.522949
117.08857 9.571428
117.129311 4.642045
117.153076 16.66667
117.208382 33.388199
117.755569 6.25
118.69381 39.060211
118.753265 7.504167
118.911621 4.1875
119.047729 212.537994
119.084999 3083.370117
119.13176 23.47917
119.145027 3.6
119.171089 32.68
119.232376 18.50189
119.263153 17.03289
119.307991 8.398026
119.350311 7.102273
119.438316 9.1125
119.617393 22.12899
119.711388 19.0194
119.95562 21.1056
120.283119 6.003676
120.392082 16.950661
120.416695 7.5625
120.496552 15.32143
120.532349 13.52083
120.569527 12.54545
120.72229 15.67587
120.806648 9.3025
121.020622 3.504808
121.064629 10273.379883
121.098869 529.343689
121.11554 8.785714
121.127274 78.026817
121.150063 26.5
121.183052 13.76042
121.208221 14.57122
121.244171 110.268501
121.295067 29.95043
121.315018 14.53125
121.346161 17.193911
121.363388 16.75
121.403633 14.56806
121.418968 7.082237
121.449974 13.78409
121.48761 15.26008
121.558655 13.0744
121.576187 20.60651
121.611092 4.173611
121.679779 9.633333
121.782768 12.90909
121.829491 4.017857
122.068115 32.192051
122.575462 17.86058
123.044868 30.33112
123.081009 442.98111
123.115593 69.050758
123.1231 4.5375
123.231422 12.58266
123.304604 12.6
125.058746 91.210838
125.688049 6.051136
127.053429 264.401489
127.139389 7.898026
127.333061 24.95878
127.50872 32.44643
127.920898 15.98214
127.960213 9.503289
128.060944 303.893585
128.587677 39.490131
128.764648 6.3375
129.000397 3.166667
129.070312 627.557678
129.412476 21.27574
130.076004 222.007797
130.148621 73.130333
130.44194 17.42045
130.801971 16.891199
131.046143 185.453995
131.083832 1127.453979
131.458801 47.146461
131.773132 9.555921
132.055984 1168.753052
132.105576 11.2025
132.120453 8.051136
132.221634 15.64828
132.659805 30.975639
132.734177 16.82
133.064499 551.284973
133.101166 426.98291
133.147324 12.59879
133.186569 28.48214
133.305557 4.004167
133.328018 18.533251
133.366928 9.278409
133.585236 19.00922
133.633865 6.3375
133.695007 21.173611
134.362396 7.004807
134.483383 12.50272
134.503555 11.14464
134.543915 14.00118
135.037384 23.89205
135.080307 2115.656006
135.113052 179.630005
135.132248 6.28125
135.300049 10.025
135.3508 11.63636
135.404846 28.41851
135.526382 4.642045
135.546402 16.03846
135.895065 14.88095
137.057999 183.311707
137.097794 70.204918
137.144089 4.340278
137.183701 8.653846
137.542496 18.125
138.518661 2.520833
139.072968 95.564484
141.070618 201.585907
141.292755 19.501141
141.325836 18.154341
141.346222 4.505682
141.411377 5.460227
141.594788 27.22299
142.07637 527.210083
142.307693 25.59766
142.523331 38.759338
142.617569 13.94643
142.960205 20.393379
143.085007 769.070923
143.135422 2.666667
143.33461 11.63682
143.405426 16.245001
143.813995 9.502016
144.056656 201.2061
144.273132 16.695311
144.341614 6.581731
144.41539 7.055555
145.063675 1495.756958
145.100922 800.612793
145.247009 19.05592
145.344299 11.55114
145.361771 21.23835
145.386932 15.52941
145.42926 21.799339
145.68071 15.62981
145.747238 35.01709
145.773102 6.011364
146.258316 21.75
146.271255 7.6875
146.286011 22.451851
146.308975 22.257811
146.336563 11.55556
146.352478 56.22179
146.379044 23.719999
146.492233 21.00568
146.551941 19.447371
146.631226 5.604167
146.653061 7.741071
146.71431 19.66898
146.802155 14.5744
146.977264 14.7875
147.079895 12042.070312
147.128967 131.570007
147.141739 5.6
147.152466 41.057869
147.183075 6.735577
147.190979 26.3025
147.225479 31.533331
147.255829 24.64464
147.263794 13.09091
147.281509 24.908331
147.295731 25.482309
147.320709 70.709633
147.349167 34.143669
147.368652 33.64204
147.385727 11.5625
147.414948 30.105
147.428497 6.029605
147.458054 14.51607
147.479187 13.0025
147.509094 18.35714
147.529984 62.34544
147.554367 15.16898
147.668793 17.702499
147.716034 16.72024
147.750626 28.10359
147.787766 18.286989
147.944275 24.00338
148.137451 7.444853
148.299927 14.05625
148.588165 7.538462
148.707169 3.673611
148.868576 6.3375
148.982819 6.180147
149.059341 45.507118
151.072754 176.159607
152.059967 9.2
152.770905 3.6875
153.067108 302.470703
153.173843 7.015625
153.284042 8.0625
154.09726 4.1125
154.275085 30.51786
154.480682 19.008329
154.591965 3.78125
155.030212 6.091912
155.052032 27.004999
155.084534 1186.082031
155.139038 44.320389
155.641785 39.284981
156.05629 71.655128
156.199783 3.25
156.466949 9.140625
157.065018 309.319702
157.102371 207.665298
157.142395 4.017857
157.163345 4.1125
157.264786 10.8025
157.399918 13.12981
157.517792 3.525
157.540878 110.578697
157.867279 23.309071
158.073013 1135.342041
158.103714 92.592102
158.156052 11.22917
158.182251 8.661184
158.199661 11.57853
158.218582 47.803982
158.287186 17.578529
158.321671 5.051136
158.348465 9.026786
158.361603 12.53472
158.49353 52.0411
158.571808 9.533334
158.704605 18.16667
159.079544 1206.843018
159.114624 160.219604
159.190125 12.90179
159.580994 8.613426
159.753052 17.882811
159.800797 6.5625
159.849182 17.08581
160.320465 17.67457
160.609756 16.835649
160.871246 8.6225
161.056625 96.006104
161.095688 857.843811
161.14917 18.598789
161.171356 2.506944
161.311478 11.22917
161.449799 14.20455
161.54747 6.3375
162.228928 20.393379
163.072708 186.293396
163.112823 66.895844
163.213898 6.0
163.788712 6.225
163.811966 29.851971
164.491959 33.206631
164.683868 6.017857
165.069763 394.7948
165.086227 318.933197
165.148499 4.515625
165.164993 9.446428
165.195633 8.8125
165.278168 3.5
165.309479 12.21607
165.436096 8.778409
166.250183 10.78009
166.676529 9.102273
167.084457 181.055603
168.053726 20.07407
169.063675 289.429504
169.09993 465.171692
169.121155 9.278409
169.260468 4.125
169.708389 11.01607
169.890137 8.45
170.075821 235.139297
170.184616 20.506941
170.202744 21.015631
170.271774 19.339279
170.320007 23.56818
170.561386 11.05
170.721573 50.186359
171.003372 43.25531
171.080231 5776.596191
171.138977 5.004807
171.152649 2.580357
171.161728 18.668751
171.203384 20.125
171.244949 49.109261
171.264053 62.764801
171.294296 31.688219
171.321075 19.50568
171.364578 56.548962
171.430542 9.9225
171.46991 9.946428
171.493805 28.71875
171.56723 14.24564
171.599533 32.96331
171.625565 14.72321
171.665039 12.3125
171.731094 6.125
171.808563 31.091909
171.823212 19.346149
171.963715 11.54006
172.145691 10.64063
172.342545 19.578529
172.433899 8.504167
172.512207 10.8
172.783173 10.20417
173.02182 6.581731
173.095856 4912.473145
173.152512 56.502949
173.173309 57.040829
173.218277 5.0625
173.255432 36.46875
173.270935 8.613426
173.325897 12.1
173.344528 9.409091
173.399612 39.314751
173.445038 19.960461
173.499512 8.161184
173.520767 7.297794
173.632874 41.065762
173.65007 33.963139
173.742935 6.026786
173.779617 10.52941
174.491714 13.78125
174.928131 46.069229
175.073746 30.9375
175.109467 159.203003
175.372314 20.1875
176.163315 5.004807
177.088486 34.53125
177.365891 11.18382
178.075775 342.548004
178.099823 186.7733
178.129486 4.571429
179.047134 42.00877
179.08461 491.000092
179.135513 4.017857
179.318878 15.40833
179.517517 19.00481
179.701691 6.625
181.062592 89.389137
181.101105 229.780502
181.176041 10.50625
181.246292 13.0125
182.071152 499.349213
182.107315 110.360001
183.080444 280.045105
183.120117 74.595238
183.212112 17.680559
183.270523 15.04735
183.374146 23.6304
183.515457 6.571429
183.784241 8.503676
184.086288 160.358795
184.530487 11.57143
184.62915 5.1
185.058899 89.540062
185.096161 773.747925
185.149689 4.0625
185.32991 37.760872
185.746674 11.70833
187.113037 109.105499
187.628998 6.0
187.714783 17.009871
187.981552 23.05921
188.220505 10.8025
188.688416 5.160714
189.068939 194.391205
189.086411 52.777889
190.077682 368.107208
190.262329 28.07143
191.086273 285.427887
191.142532 4.080357
191.393738 10.01042
191.997345 11.76563
192.094467 116.864197
192.955765 13.5504
193.023422 10.20833
193.050537 8.765625
193.101013 505.178986
193.240982 5.543269
193.478027 11.03333
193.662262 26.827209
193.71521 12.75
194.065735 61.335529
194.07959 45.103569
194.106552 216.335495
194.310989 7.006945
194.777206 4.6
195.079086 557.590027
195.116577 437.352112
195.214264 9.547348
195.493134 6.581731
195.644699 36.816669
195.773621 11.0125
196.087219 600.023804
196.265579 19.527411
196.309921 11.625
196.389893 13.5
196.560715 8.3125
197.026627 12.12981
197.095901 749.645081
197.149979 6.020833
197.231766 21.01103
197.314835 22.5
197.397919 5.0
197.501022 13.8912
197.569687 19.66806
197.75032 10.78409
197.960419 14.01103
198.009369 9.002016
198.228058 15.28125
198.303192 9.633333
198.440399 10.5875
198.475021 9.459239
198.513916 16.50543
199.080887 10.26563
199.111542 241.906296
199.228271 8.765625
199.274384 10.50735
199.997177 33.674858
201.105331 8.5375
202.07489 125.701202
203.082352 152.879196
203.783371 8.125
204.094467 81.702423
204.353867 3.020833
204.3797 8.545455
205.100357 586.224426
205.231033 11.125
205.787979 24.727819
206.778931 19.61161
206.818954 2.53125
207.077286 186.815796
207.11438 332.22699
207.451874 9.327206
207.805725 12.01308
207.870926 12.5
208.087936 769.992676
208.39212 26.559299
208.431213 44.16666
209.095413 931.145874
209.130936 247.999695
209.297882 33.270618
209.368332 10.56793
209.393494 13.5
209.467804 14.625
209.685562 7.145833
209.88208 6.533088
210.102158 433.452301
210.149734 2.5625
210.204758 12.25
210.421707 17.226851
210.538757 18.225
210.820557 21.6625
211.017151 34.128181
211.111313 789.397095
211.169235 3.508929
211.260254 8.003289
211.283813 5.960227
211.366455 5.104167
211.695236 5.551136
211.801819 27.300831
212.078415 91.089996
212.541473 10.04735
213.125626 227.090897
213.141068 93.842583
213.155609 8.510417
214.18335 35.59552
215.082962 87.666656
216.091843 99.800346
216.13913 54.484909
216.464981 8.909091
217.490601 14.7875
218.106979 65.265312
218.331818 3.0
219.078583 250.636398
219.118851 212.411804
219.178024 21.63158
219.250351 17.625
219.378387 6.581731
219.635635 8.121324
219.763199 11.5875
220.125748 114.584602
220.232697 4.1
220.418655 15.14464
220.749329 11.16331
221.093658 821.486511
221.127167 93.761772
221.183731 14.01607
221.360626 6.75
221.464279 6.446429
221.535721 14.46314
221.836319 8.505682
221.903534 38.56377
221.929398 12.18382
222.104691 390.656097
222.147156 5.083333
222.332169 10.0625
222.36647 18.421341
222.404907 25.0016
222.484299 19.042231
222.512863 36.559891
222.65036 5.5125
222.754196 24.397551
222.786423 12.89286
223.112137 1545.395996
223.176926 3.5625
223.206146 5.504807
223.456207 59.624451
223.495316 12.28125
223.58577 20.64286
223.673141 6.541667
223.805984 17.501789
223.887451 19.0875
224.684677 21.673149
225.091034 64.694229
225.126419 191.492401
225.201218 2.5
225.24823 10.65385
225.84906 26.00403
226.133804 345.950714
226.484161 17.16346
227.037384 9.666667
227.100342 24.179029
227.237976 43.797871
227.268112 21.390631
227.300125 48.918751
229.096298 104.8573
230.112213 138.75
230.288498 11.50329
231.080231 128.626404
231.117371 86.864227
231.319427 33.690369
231.737259 7.511364
232.089355 165.057999
232.198227 9.502717
232.3573 8.0625
232.802963 9.674569
233.096497 180.553299
233.130722 343.681396
233.182632 7.75
233.258118 38.797199
234.105103 199.6754
234.472534 14.78125
235.112473 199.198593
235.144196 70.738243
235.507919 21.6777
236.120773 122.839302
236.364822 52.321831
236.458817 10.125
237.084824 15.07122
237.125214 860.55072
237.191971 3.0625
237.330795 12.0375
237.343552 24.793631
237.62616 9.240385
237.692932 19.506941
237.792511 30.56522
238.237915 7.5
238.707321 20.053089
239.102295 96.410522
239.142227 402.203613
239.264618 4.225
239.894547 19.225
240.088699 12.02273
240.131775 6.0
241.101212 246.816803
241.155304 64.944847
241.692291 16.86862
242.157776 31.785601
242.69931 12.25
242.84024 7.59375
243.114075 94.603882
244.082779 35.809071
244.122849 153.080002
244.21376 2.5
244.376877 12.25
244.70871 17.008329
245.094543 137.195602
245.296829 8.0
245.3349 9.846154
245.455933 16.115391
245.569077 8.518146
245.694748 16.513081
245.770096 15.74107
246.105057 130.254593
246.137299 97.806412
247.110474 591.276611
247.152863 25.50106
247.342758 12.66964
247.557724 13.04214
247.87532 23.01613
247.913666 18.04167
248.225357 7.0125
248.53302 4.051136
248.631744 5.640625
249.093704 35.220589
249.127792 405.506592
249.161865 516.714783
249.204391 6.6125
249.48851 15.6098
249.686081 14.77841
250.095795 19.625
250.247253 19.586439
250.390213 8.507813
250.632492 23.500931
250.95755 4.0
251.143921 1514.515991
251.211136 32.114891
251.324173 7.125
251.427917 20.160061
251.531036 4.083333
251.81813 7.043269
251.895309 4.025
251.928452 26.048611
252.109085 112.444901
252.197464 9.180555
252.483322 23.16346
256.911407 5.503676
257.586243 16.61343
257.748047 44.086811
258.968323 13.6125
259.111908 383.097412
259.494019 21.670139
260.118195 295.438812
260.159271 26.66964
260.246185 10.68015
260.329071 21.6875
260.468445 14.1875
261.124084 201.930099
261.144684 28.042231
261.765839 25.4375
262.133392 159.3237
262.252319 12.16118
263.023712 15.84722
263.070465 16.07143
263.106598 89.62989
263.141449 78.26944
263.374481 12.22321
264.158142 95.50618
264.319733 3.551136
264.539581 13.62981
264.798859 19.1
265.123291 42.90271
265.156647 462.210602
265.201996 5.017857
265.675903 15.68056
265.797211 11.14464
266.164978 447.174194
266.245453 18.09552
266.551483 8.160714
267.040985 32.154072
267.102173 68.324402
267.2341 6.082237
268.030884 15.71556
271.11554 29.30682
273.128204 117.031303
274.135345 349.081299
274.157654 19.320311
274.199036 5.080357
276.509155 10.1056
277.122772 24.66033
277.159332 106.240196
278.479065 5.6875
279.138 52.810291
279.173553 81.081078
289.158142 208.624802
290.770935 6.581731
292.146729 19.004169
293.152466 63.818169
294.172485 51.09
294.619629 12.00169
295.164795 64.401917
295.229004 2.53125
305.393097 11.59879
307.178711 84.00489
307.359894 2.541667
889.332642 45.09573
1056.654419 26.18042
1437.079834 23.50403
1511.043579 27.42404
