>compound Sulfameter (Bayrena)
>formula C11H12N4O3S
>ionization [M+H]+
>parentmass 281.07028769609053
#inchi InChI=1S/C11H12N4O3S/c1-18-9-6-13-11(14-7-9)15-19(16,17)10-4-2-8(12)3-5-10/h2-7H,12H2,1H3,(H,13,14,15)
#inchikey GPTONYMQFTZPKC
#Ion_Source LC-ESI
#Instrument qTof
#Compound_Source Commercial
#PI Dorrestein
#Data_Collector Garg_Neha
#Scan -1
#Precursor_MZ 281.07
#ExactMass 280.063
#Charge 1
#CAS_Number 651-06-9
#Pubmed_ID N/A
#Smiles C1(=CC=C(C=C1)S(NC2=NC=C(C=N2)OC)(=O)=O)N
#INCHI_AUX N/A
#Library_Class 1
#SpectrumID CCMSLIB00000078209
#IonMode Positive
#UpdateWorkflowName UPDATE-SINGLE-ANNOTATED-GOLD
#LibraryQualityString Gold
#TaskID 77f51c88eb8b467eb4a01dd2d0cb90d2
##Scan# 1081
#SpectrumFile Plate3_41_60_GG11_01_16500.mzXML
#LibraryName FDALibrary_2_04302014.mgf
#MQScore -1
#Organism FDALibrary_2_04302014
#TIC_Query 0
#RT_Query -1
#MZErrorPPM -1
#SharedPeaks 0
#MassDiff 0
#LibMZ -1
#SpecMZ 281.07
#SpecCharge 0
#internalFilename spec-00000.mgf

>collision 0
60.9749 0.82
74.001 0.78
92.0493 2.77
93.0576 2.06
108.0444 29.44
110.036 1.33
110.061 1.09
111.0422 1.47
124.0507 4.09
126.0659 37.08
142.0258 0.85
156.0114 100.0
172.074 7.59
173.0721 1.2
174.0219 1.26
185.0577 1.91
186.065 0.82
188.0127 21.99
200.0693 4.72
215.0927 39.84
217.1078 6.39
263.0574 2.48
281.0724 393.95
