>compound Pimecrolimus
>formula C43H68ClNO11
>ionization [M+Na]+
>parentmass 832.439026
#inchi InChI=1S/C43H68ClNO11/c1-10-30-18-24(2)17-25(3)19-36(53-8)39-37(54-9)21-27(5)43(51,56-39)40(48)41(49)45-16-12-11-13-32(45)42(50)55-38(28(6)33(46)23-34(30)47)26(4)20-29-14-15-31(44)35(22-29)52-7/h18,20,25,27-33,35-39,46,51H,10-17,19,21-23H2,1-9H3/b24-18+,26-20+/t25-,27+,28+,29-,30+,31+,32-,33-,35+,36-,37-,38+,39-,43+/m0/s1
#inchikey KASDHRXLYQOAKZ
#Ion_Source LC-ESI
#Instrument qTof
#Compound_Source Commercial
#PI Dorrestein
#Data_Collector Garg_Neha
#Scan -1
#Precursor_MZ 832.437
#ExactMass 809.448
#Charge 1
#CAS_Number 137071-32-0, 1000802-56-1 (HCl)
#Pubmed_ID N/A
#Smiles [C@H]1(C[C@@H](CC[C@H]1Cl)/C=C(/[C@@H]2[C@@H]([C@@H](O)CC(=O)[C@H](CC)/C=C(/C[C@@H](C[C@@H]([C@H]3[C@H](C[C@H]([C@](C(C(N4[C@](C(O2)=O)(CCCC4)[H])=O)=O)(O3)O)C)OC)OC)C)C)C)C)OC
#INCHI_AUX N/A
#Library_Class 1
#SpectrumID CCMSLIB00000078652
#IonMode Positive
#UpdateWorkflowName UPDATE-SINGLE-ANNOTATED-GOLD
#LibraryQualityString Gold
#TaskID 77f51c88eb8b467eb4a01dd2d0cb90d2
##Scan# 3710
#SpectrumFile Plate10_41_64_GC3_01_15747.mzXML
#LibraryName FDALibrary_2_04302014.mgf
#MQScore -1
#Organism FDALibrary_2_04302014
#TIC_Query 0
#RT_Query -1
#MZErrorPPM -1
#SharedPeaks 0
#MassDiff 0
#LibMZ -1
#SpecMZ 832.437
#SpecCharge 0
#internalFilename spec-00000.mgf

>collision 0
375.2504 3.22
403.242 10.63
404.246 2.57
419.2406 3.67
421.2526 3.5
431.2383 14.21
432.2407 4.94
448.2349 2.36
449.251 9.37
465.243 5.85
466.2463 2.45
475.2297 12.18
476.2281 6.11
493.241 44.12
494.2444 7.1
532.3212 2.65
560.3189 2.45
576.3148 10.6
577.3186 4.49
577.3826 4.61
586.295 2.7
587.3035 2.49
595.3962 9.11
604.308 100.0
605.312 39.64
605.3774 7.43
613.3587 2.43
623.3948 6.64
624.3963 3.88
631.374 2.95
641.3578 3.95
642.3641 2.52
643.348 2.88
659.37 11.22
660.3721 4.13
661.3712 4.35
667.3793 6.64
677.3808 2.48
685.3473 3.98
685.3903 4.19
703.3589 5.88
705.3591 3.52
721.3691 9.32
723.3677 4.16
778.4493 8.71
796.4597 9.81
797.4636 3.79
814.426 13.04
815.4326 8.14
832.4392 322.09
