>compound MLS002154158-01!Rifabutin72559-06-9
>formula C46H62N4O11
>ionization [M+H]+
>parentmass 847.448669
#inchi InChI=1S/C46H62N4O11/c1-12-24(4)50-19-17-46(18-20-50)48-34-31-32-39(54)28(8)42-33(31)43(56)45(10,61-42)59-21-16-30(58-11)25(5)41(60-29(9)51)27(7)38(53)26(6)37(52)22(2)14-13-15-23(3)44(57)47-36(40(32)55)35(34)49-46/h13-16,21-22,24-27,30,37-38,41,52-55H,12,17-20H2,1-11H3,(H,47,57)/t22-,24?,25+,26+,27+,30-,37-,38+,41+,45-/m0/s1
#inchikey AKRQWYTYCZTTAV
#Ion_Source LC-ESI
#Instrument qTof
#Compound_Source NIH Pharmacologically Active Library
#PI Dorrestein
#Data_Collector VP/LMS
#Scan -1
#Precursor_MZ 847.45
#ExactMass 846.442
#Charge 1
#CAS_Number N/A
#Pubmed_ID N/A
#Smiles CCC(C)N1CCC2(CC1)N=c3c4NC(=O)C(=CC=C[C@H](C)[C@H](O)[C@@H](C)[C@@H](O)[C@@H](C)[C@H](OC(=O)C)[C@H](C)[C@@H](OC)C=CO[C@@]5(C)Oc6c(C5=O)c(c3=N2)c(c(O)c6C)c4O)C
#INCHI_AUX N/A
#Library_Class 1
#SpectrumID CCMSLIB00000085226
#IonMode Positive
#UpdateWorkflowName UPDATE-SINGLE-ANNOTATED-GOLD
#LibraryQualityString Gold
#TaskID d252d724072548979f1f6f1ced849daf
##Scan# 1993
#SpectrumFile p3-G03_GG3_01_18296.mzXML
#LibraryName Pharm_Active_Library.mgf
#MQScore -1
#Organism Pharm_Active_Library
#TIC_Query 0
#RT_Query -1
#MZErrorPPM -1
#SharedPeaks 0
#MassDiff 0
#LibMZ -1
#SpecMZ 847.45
#SpecCharge 0
#internalFilename spec-00000.mgf

>collision 0
95.0852 7.58
105.0697 2.9
107.0856 8.61
109.0644 6.46
119.0856 2.96
121.0647 3.39
121.101 2.79
123.0806 18.65
125.0956 2.69
133.1012 2.36
135.0808 8.71
135.1166 2.43
137.0956 2.5
145.1009 5.11
147.1168 4.77
151.0758 25.56
153.0904 5.91
161.0961 5.28
163.1117 13.52
173.0961 2.53
175.1115 3.67
179.1057 3.41
191.1069 7.02
193.1221 2.78
307.0716 2.52
309.0864 2.94
321.0871 4.3
322.0843 8.6
324.098 9.25
325.1039 3.36
338.1144 7.56
339.1204 4.36
340.1299 4.2
406.1761 2.24
422.1948 4.49
423.203 8.82
424.2073 3.56
545.2748 2.44
573.27 3.99
632.3203 3.62
670.312 2.42
730.3337 4.48
737.3932 4.8
755.4039 36.38
756.4073 16.27
787.4275 2.54
797.4137 6.98
798.415 2.84
815.4275 100.0
816.43 81.68
847.4528 23.07
